# Begin of measurement: 19.07.2019 13:03:16
# R-Sample[Ohm]	I-Coil[A]	U-Magnetometer[V]
# Kei2000	HP E3631A +6V : I	Kei2000
1.10212622E+3	6.58749100E-2	-1.41445790E-1
1.10211657E+3	6.72780800E-2	2.32546195E-1
1.10215084E+3	6.87395500E-2	2.39380670E-1
1.10215791E+3	7.02126800E-2	2.46729986E-1
1.10214971E+3	7.15730900E-2	2.53118485E-1
1.10214526E+3	7.29490500E-2	2.60416867E-1
1.10215867E+3	7.45465500E-2	2.67680324E-1
1.10212283E+3	7.59497200E-2	2.74722917E-1
1.10215156E+3	7.75822100E-2	2.82052245E-1
1.10215894E+3	7.89465100E-2	2.89393064E-1
1.10216381E+3	8.04468400E-2	2.96617814E-1
1.10215939E+3	8.19083100E-2	3.03921161E-1
1.10216101E+3	8.33970000E-2	3.11190834E-1
1.10217020E+3	8.48779000E-2	3.18517523E-1
1.10215949E+3	8.63432500E-2	3.25890362E-1
1.10216692E+3	8.78669100E-2	3.33002991E-1
1.10216494E+3	8.95032900E-2	3.40379288E-1
1.10215422E+3	9.08326000E-2	3.47649945E-1
1.10214571E+3	9.22746400E-2	3.54008708E-1
1.10216534E+3	9.37633100E-2	3.61337231E-1
1.10216698E+3	9.51509300E-2	3.68660969E-1
1.10216869E+3	9.66318300E-2	3.75952242E-1
1.10216761E+3	9.80894200E-2	3.83233542E-1
1.10217126E+3	9.96869200E-2	3.90442176E-1
1.10216914E+3	1.01070700E-1	3.97777407E-1
1.10216802E+3	1.02641000E-1	4.05002183E-1
1.10217320E+3	1.04051900E-1	4.12324669E-1
1.10217811E+3	1.05540600E-1	4.19594924E-1
1.10217518E+3	1.07099200E-1	4.26936818E-1
1.10214020E+3	1.08486800E-1	4.34217180E-1
1.10216568E+3	1.10173700E-1	4.41556212E-1
1.10216672E+3	1.11324300E-1	4.48804820E-1
1.10213500E+3	1.12746800E-1	4.55142986E-1
1.10214787E+3	1.14391000E-1	4.62420574E-1
1.10215723E+3	1.15728100E-1	4.69723876E-1
1.10216723E+3	1.17236200E-1	4.77004773E-1
1.10216556E+3	1.18756000E-1	4.84308030E-1
1.10216737E+3	1.20279600E-1	4.91621483E-1
1.10216768E+3	1.21799400E-1	4.98955237E-1
1.10217367E+3	1.23295900E-1	5.05940503E-1
1.10216102E+3	1.24625200E-1	5.13237722E-1
1.10216588E+3	1.26141100E-1	5.20556452E-1
1.10216484E+3	1.27726900E-1	5.27848731E-1
1.10215953E+3	1.29293300E-1	5.35150165E-1
1.10217335E+3	1.30630400E-1	5.42430840E-1
1.10215863E+3	1.32142400E-1	5.49675472E-1
1.10217097E+3	1.33712700E-1	5.57016516E-1
1.10217173E+3	1.34991500E-1	5.64264546E-1
1.10217110E+3	1.36441300E-1	5.71640336E-1
1.10216683E+3	1.38023300E-1	5.77955543E-1
1.10216849E+3	1.39519700E-1	5.85279505E-1
1.10215997E+3	1.40942300E-1	5.92567334E-1
1.10217223E+3	1.42306600E-1	5.99864420E-1
1.10216750E+3	1.43803100E-1	6.07158868E-1
1.10216962E+3	1.45361700E-1	6.14510689E-1
1.10216458E+3	1.46920300E-1	6.21798027E-1
1.10214841E+3	1.48412900E-1	6.29064347E-1
1.10216269E+3	1.49812200E-1	6.36395642E-1
1.10216268E+3	1.51444700E-1	6.43739057E-1
1.10216255E+3	1.52913900E-1	6.51024963E-1
1.10215647E+3	1.54235500E-1	6.58336628E-1
1.10215386E+3	1.55809600E-1	6.65624412E-1
1.10215980E+3	1.57236100E-1	6.72946049E-1
1.10216750E+3	1.58829800E-1	6.80154548E-1
1.10215872E+3	1.60201800E-1	6.87404904E-1
1.10215661E+3	1.61531100E-1	6.94761018E-1
1.10216458E+3	1.63163600E-1	7.01109271E-1
1.10215967E+3	1.64481300E-1	7.08419773E-1
1.10213833E+3	1.65919400E-1	7.15753662E-1
1.10213734E+3	1.67555800E-1	7.22999278E-1
1.10215684E+3	1.69052300E-1	7.30306783E-1
1.10215809E+3	1.70572000E-1	7.37272909E-1
1.10216489E+3	1.72025700E-1	7.44567804E-1
1.10216219E+3	1.73378400E-1	7.51884700E-1
1.10216129E+3	1.74870900E-1	7.59158265E-1
1.10215652E+3	1.76421800E-1	7.66488621E-1
1.10216288E+3	1.77797700E-1	7.73763035E-1
1.10216879E+3	1.79531300E-1	7.81121743E-1
1.10215951E+3	1.80817900E-1	7.88376973E-1
1.10215902E+3	1.82337600E-1	7.95552828E-1
1.10214681E+3	1.83919600E-1	8.02895884E-1
1.10214762E+3	1.85210000E-1	8.10156391E-1
1.10214713E+3	1.86659900E-1	8.16515019E-1
1.10215016E+3	1.88047500E-1	8.23825476E-1
1.10215408E+3	1.89555600E-1	8.31184989E-1
1.10215674E+3	1.91199700E-1	8.38355522E-1
1.10214035E+3	1.92680600E-1	8.45719328E-1
1.10215210E+3	1.93998300E-1	8.52835886E-1
1.10216110E+3	1.95669600E-1	8.60115085E-1
1.10212650E+3	1.97103900E-1	8.67415615E-1
1.10215064E+3	1.98569300E-1	8.74677480E-1
1.10214091E+3	2.00116200E-1	8.81950994E-1
1.10215334E+3	2.01542700E-1	8.89305946E-1
1.10216019E+3	2.03097500E-1	8.96542350E-1
1.10215906E+3	2.04434600E-1	9.03856922E-1
1.10216356E+3	2.05903800E-1	9.11051022E-1
1.10216286E+3	2.07571300E-1	9.18316672E-1
1.10215484E+3	2.08877300E-1	9.25602400E-1
1.10215543E+3	2.10237700E-1	9.31985534E-1
1.10215070E+3	2.11776900E-1	9.39248143E-1
1.10215070E+3	2.13195600E-1	9.46564011E-1
1.10216664E+3	2.14890300E-1	9.53856394E-1
1.10215870E+3	2.16153500E-1	9.61117501E-1
1.10215631E+3	2.17622800E-1	9.68127317E-1
1.10213321E+3	2.19263000E-1	9.75384603E-1
1.10214505E+3	2.20755600E-1	9.82729269E-1
1.10215834E+3	2.22065500E-1	9.89984492E-1
1.10215843E+3	2.23581400E-1	9.97228484E-1
1.10215156E+3	2.25042800E-1	1.00451479E+0
1.10215651E+3	2.26547100E-1	1.01182820E+0
1.10215899E+3	2.27989100E-1	1.01911174E+0
1.10216529E+3	2.29547700E-1	1.02630619E+0
1.10215872E+3	2.31168600E-1	1.03361021E+0
1.10216682E+3	2.32684400E-1	1.04089598E+0
1.10217108E+3	2.33823300E-1	1.04815380E+0
1.10217373E+3	2.35428600E-1	1.05458626E+0
1.10215775E+3	2.36909500E-1	1.06188428E+0
1.10216648E+3	2.38386500E-1	1.06914668E+0
1.10217216E+3	2.39781900E-1	1.07635130E+0
1.10215360E+3	2.41305500E-1	1.08372924E+0
1.10216201E+3	2.42794200E-1	1.09093988E+0
1.10216207E+3	2.44407300E-1	1.09827399E+0
1.10216361E+3	2.45864900E-1	1.10548884E+0
1.10214947E+3	2.47345800E-1	1.11277506E+0
1.10215113E+3	2.48760600E-1	1.12003235E+0
1.10212560E+3	2.50358100E-1	1.13351925E+0
1.10212830E+3	2.51773000E-1	1.13462227E+0
1.10211648E+3	2.53156700E-1	1.14187665E+0
1.10214521E+3	2.54711400E-1	1.14904687E+0
1.10214990E+3	2.56316700E-1	1.15629061E+0
1.10214121E+3	2.57626600E-1	1.16357709E+0
1.10214359E+3	2.59119200E-1	1.17084569E+0
1.10214769E+3	2.60821600E-1	1.17822873E+0
1.10216371E+3	2.62154800E-1	1.18540516E+0
1.10214828E+3	2.63701800E-1	1.19272595E+0
1.10215031E+3	2.65050500E-1	1.19999925E+0
1.10213063E+3	2.66589700E-1	1.20695612E+0
1.10213914E+3	2.68179500E-1	1.21422485E+0
1.10215260E+3	2.69590400E-1	1.22153835E+0
1.10215250E+3	2.71184000E-1	1.22879188E+0
1.10215828E+3	2.72567700E-1	1.23606736E+0
1.10216067E+3	2.74138100E-1	1.24330819E+0
1.10216495E+3	2.75467400E-1	1.25056557E+0
1.10215437E+3	2.76928900E-1	1.25696109E+0
1.10215491E+3	2.78464200E-1	1.26412697E+0
1.10214941E+3	2.79906200E-1	1.27140183E+0
1.10217166E+3	2.81398800E-1	1.27865545E+0
1.10214910E+3	2.82732000E-1	1.28598174E+0
1.10216680E+3	2.84197300E-1	1.29320321E+0
1.10216086E+3	2.85880300E-1	1.30052833E+0
1.10216014E+3	2.87404000E-1	1.30776800E+0
1.10217175E+3	2.88834400E-1	1.31502238E+0
1.10216401E+3	2.90326900E-1	1.32214716E+0
1.10215721E+3	2.91769000E-1	1.32943906E+0
1.10215879E+3	2.93176000E-1	1.33666413E+0
1.10216311E+3	2.94711400E-1	1.34396110E+0
1.10214433E+3	2.96149500E-1	1.35120917E+0
1.10216933E+3	2.97638200E-1	1.35850528E+0
1.10213866E+3	2.99134600E-1	1.36570676E+0
1.10213871E+3	3.00537800E-1	1.37296977E+0
1.10213034E+3	3.02010900E-1	1.37923757E+0
1.10216046E+3	3.03375200E-1	1.38648623E+0
1.10216492E+3	3.04996000E-1	1.39375071E+0
1.10217410E+3	3.06399200E-1	1.40103438E+0
1.10218820E+3	3.07872300E-1	1.40827222E+0
1.10217937E+3	3.09364900E-1	1.41560040E+0
1.10218487E+3	3.11016800E-1	1.42275853E+0
1.10218306E+3	3.12241200E-1	1.43009416E+0
1.10217127E+3	3.13893100E-1	1.43698422E+0
1.10218487E+3	3.15273000E-1	1.44426199E+0
1.10218198E+3	3.16788900E-1	1.45153054E+0
1.10217145E+3	3.18425300E-1	1.45878126E+0
1.10217289E+3	3.19917800E-1	1.46605196E+0
1.10218474E+3	3.21348200E-1	1.47329610E+0
1.10217713E+3	3.22739700E-1	1.48053925E+0
1.10217240E+3	3.24313900E-1	1.48778728E+0
1.10217496E+3	3.25503200E-1	1.49499734E+0
1.10217520E+3	3.27201800E-1	1.50134295E+0
1.10218429E+3	3.28461200E-1	1.50858155E+0
1.10218096E+3	3.29953700E-1	1.51582819E+0
1.10218677E+3	3.31590100E-1	1.52305990E+0
1.10217353E+3	3.33012700E-1	1.53029831E+0
1.10217835E+3	3.34474200E-1	1.53758789E+0
1.10218461E+3	3.35970600E-1	1.54480945E+0
1.10218020E+3	3.37443700E-1	1.55202412E+0
1.10217988E+3	3.38936300E-1	1.55931723E+0
1.10219136E+3	3.40440500E-1	1.56652848E+0
1.10219069E+3	3.41867000E-1	1.57381853E+0
1.10218524E+3	3.43344000E-1	1.58108677E+0
1.10218866E+3	3.45023200E-1	1.58835891E+0
1.10218894E+3	3.46480800E-1	1.59557644E+0
1.10217826E+3	3.47880000E-1	1.60281253E+0
1.10216840E+3	3.49469800E-1	1.60996947E+0
1.10216174E+3	3.50795200E-1	1.61719581E+0
1.10214350E+3	3.52089500E-1	1.62350909E+0
1.10213859E+3	3.53609300E-1	1.63080613E+0
1.10217408E+3	3.55218500E-1	1.63804410E+0
1.10216897E+3	3.56757700E-1	1.64531387E+0
1.10217649E+3	3.58153100E-1	1.65248607E+0
1.10217806E+3	3.59571800E-1	1.65972730E+0
1.10218603E+3	3.61130400E-1	1.66663749E+0
1.10219486E+3	3.62541300E-1	1.67388717E+0
1.10219031E+3	3.64033900E-1	1.68112085E+0
1.10218644E+3	3.65495400E-1	1.68835895E+0
1.10219063E+3	3.67100700E-1	1.69554921E+0
1.10218964E+3	3.68604900E-1	1.70281964E+0
1.10218302E+3	3.70116900E-1	1.71000502E+0
1.10217897E+3	3.71520100E-1	1.71730511E+0
1.10218576E+3	3.72946600E-1	1.72442562E+0
1.10219471E+3	3.74369100E-1	1.73166686E+0
1.10219192E+3	3.75908400E-1	1.73798139E+0
1.10219723E+3	3.77229900E-1	1.74523532E+0
1.10218665E+3	3.78765200E-1	1.75244087E+0
1.10217548E+3	3.80203400E-1	1.75969078E+0
1.10218809E+3	3.81723100E-1	1.76696756E+0
1.10217880E+3	3.83110800E-1	1.77426519E+0
1.10217841E+3	3.84692700E-1	1.78099368E+0
1.10218269E+3	3.86239700E-1	1.78819766E+0
1.10218958E+3	3.87778900E-1	1.79544252E+0
1.10218143E+3	3.89255900E-1	1.80263970E+0
1.10219057E+3	3.90701800E-1	1.80984297E+0
1.10218363E+3	3.92175000E-1	1.81716501E+0
1.10218719E+3	3.93679200E-1	1.82430827E+0
1.10217445E+3	3.95043500E-1	1.83155370E+0
1.10217904E+3	3.96501100E-1	1.83871323E+0
1.10217256E+3	3.97826500E-1	1.84592562E+0
1.10215090E+3	3.99334600E-1	1.85225201E+0
1.10217864E+3	4.00803900E-1	1.85945796E+0
1.10217817E+3	4.02486800E-1	1.86673381E+0
1.10218299E+3	4.03827900E-1	1.87394034E+0
1.10217583E+3	4.05266000E-1	1.88116695E+0
1.10217736E+3	4.06735200E-1	1.88835465E+0
1.10218398E+3	4.08332700E-1	1.89529855E+0
1.10217191E+3	4.09720400E-1	1.90253929E+0
1.10216770E+3	4.11310100E-1	1.90972995E+0
1.10217274E+3	4.12670500E-1	1.91697986E+0
1.10216752E+3	4.14155300E-1	1.92414471E+0
1.10216855E+3	4.15756700E-1	1.93140388E+0
1.10217841E+3	4.17295900E-1	1.93862584E+0
1.10216837E+3	4.18811800E-1	1.94582812E+0
1.10216727E+3	4.20032300E-1	1.95293390E+0
1.10216103E+3	4.21416000E-1	1.95921360E+0
1.10217292E+3	4.22974600E-1	1.96646145E+0
1.10216878E+3	4.24482800E-1	1.97370139E+0
1.10216842E+3	4.25952000E-1	1.98087219E+0
1.10216918E+3	4.27397900E-1	1.98809077E+0
1.10217350E+3	4.28921600E-1	1.99529899E+0
1.10216932E+3	4.30355800E-1	2.00248213E+0
1.10217724E+3	4.32023300E-1	2.00972766E+0
1.10217530E+3	4.33364300E-1	2.01691040E+0
1.10216941E+3	4.34856800E-1	2.02410643E+0
1.10217004E+3	4.36287200E-1	2.03130083E+0
1.10217373E+3	4.37919700E-1	2.03851496E+0
1.10216450E+3	4.39482300E-1	2.04573889E+0
1.10216346E+3	4.40757100E-1	2.05297310E+0
1.10217098E+3	4.42133100E-1	2.05927583E+0
1.10216094E+3	4.43606200E-1	2.06649006E+0
1.10217022E+3	4.45164900E-1	2.07365120E+0
1.10216675E+3	4.46715700E-1	2.08083770E+0
1.10215962E+3	4.48072200E-1	2.08798399E+0
1.10216556E+3	4.49592000E-1	2.09522147E+0
1.10216502E+3	4.51084600E-1	2.10240283E+0
1.10217331E+3	4.52651000E-1	2.10963507E+0
1.10215989E+3	4.53992000E-1	2.11684567E+0
1.10217560E+3	4.55476800E-1	2.12401862E+0
1.10217979E+3	4.57039300E-1	2.13094539E+0
1.10216263E+3	4.58473600E-1	2.13818263E+0
1.10217817E+3	4.60156600E-1	2.14540170E+0
1.10216745E+3	4.61622000E-1	2.15262209E+0
1.10216808E+3	4.62955100E-1	2.15977603E+0
1.10216507E+3	4.64226200E-1	2.16702911E+0
1.10216894E+3	4.65839200E-1	2.17329965E+0
1.10216788E+3	4.67300700E-1	2.18045940E+0
1.10217170E+3	4.68859300E-1	2.18758584E+0
1.10217175E+3	4.70235300E-1	2.19478746E+0
1.10216310E+3	4.71688900E-1	2.20200584E+0
1.10216076E+3	4.73158200E-1	2.20923397E+0
1.10216630E+3	4.74604100E-1	2.21642641E+0
1.10216246E+3	4.76085000E-1	2.22359623E+0
1.10215695E+3	4.77694200E-1	2.23077526E+0
1.10217451E+3	4.79256700E-1	2.23797839E+0
1.10216425E+3	4.80636500E-1	2.24503029E+0
1.10216627E+3	4.82280700E-1	2.25227124E+0
1.10217366E+3	4.83753900E-1	2.25947120E+0
1.10215241E+3	4.85164800E-1	2.26672669E+0
1.10214969E+3	4.86556300E-1	2.27385376E+0
1.10214761E+3	4.88083800E-1	2.28102872E+0
1.10215306E+3	4.89409300E-1	2.28824952E+0
1.10215167E+3	4.91002900E-1	2.29456733E+0
1.10215658E+3	4.92328300E-1	2.30167861E+0
1.10214460E+3	4.93972500E-1	2.30889019E+0
1.10215023E+3	4.95313500E-1	2.31606055E+0
1.10215167E+3	4.96949800E-1	2.32324740E+0
1.10214208E+3	4.98314100E-1	2.33040430E+0
1.10214969E+3	4.99950500E-1	2.33764115E+0
1.10214073E+3	5.01466400E-1	2.34482612E+0
1.10213622E+3	5.02865700E-1	2.35201267E+0
1.10213651E+3	5.04327100E-1	2.35895165E+0
1.10213712E+3	5.05776900E-1	2.36609364E+0
1.10213717E+3	5.07222800E-1	2.37334251E+0
1.10214176E+3	5.08715400E-1	2.38049390E+0
1.10214608E+3	5.10254600E-1	2.38768089E+0
1.10214905E+3	5.11789900E-1	2.39486681E+0
1.10214842E+3	5.13107600E-1	2.40207687E+0
1.10214531E+3	5.14405900E-1	2.40839722E+0
1.10213883E+3	5.15968300E-1	2.41546141E+0
1.10214284E+3	5.17406500E-1	2.42267599E+0
1.10214014E+3	5.18895100E-1	2.42985001E+0
1.10213951E+3	5.20484900E-1	2.43703624E+0
1.10214266E+3	5.22066900E-1	2.44424586E+0
1.10213230E+3	5.23555500E-1	2.45792371E+0
1.10212942E+3	5.24904300E-1	2.45859658E+0
1.10214707E+3	5.26703900E-1	2.46578429E+0
1.10213257E+3	5.28006000E-1	2.47392521E+0
1.10212879E+3	5.29389800E-1	2.48021108E+0
1.10213707E+3	5.30855100E-1	2.48739140E+0
1.10213312E+3	5.32359400E-1	2.49455460E+0
1.10213433E+3	5.33988000E-1	2.50174933E+0
1.10213095E+3	5.35468800E-1	2.50902141E+0
1.10213487E+3	5.36879800E-1	2.51615013E+0
1.10213171E+3	5.38317900E-1	2.52333793E+0
1.10212091E+3	5.39826100E-1	2.53048852E+0
1.10212455E+3	5.41248600E-1	2.53770046E+0
1.10212714E+3	5.42881200E-1	2.54490390E+0
1.10212254E+3	5.44257100E-1	2.55209729E+0
1.10212489E+3	5.45796300E-1	2.55936759E+0
1.10211282E+3	5.47304400E-1	2.56653803E+0
1.10211831E+3	5.48909700E-1	2.57366496E+0
1.10210588E+3	5.49990200E-1	2.58092989E+0
1.10211708E+3	5.51478900E-1	2.58687854E+0
1.10211955E+3	5.53025900E-1	2.59415492E+0
1.10212207E+3	5.54557300E-1	2.60131562E+0
1.10212734E+3	5.56034300E-1	2.60855520E+0
1.10212099E+3	5.57515300E-1	2.61573928E+0
1.10211703E+3	5.58941700E-1	2.62298449E+0
1.10211550E+3	5.60663700E-1	2.63014760E+0
1.10210911E+3	5.61930800E-1	2.63735109E+0
1.10212005E+3	5.63473800E-1	2.64451160E+0
1.10211465E+3	5.64962500E-1	2.65172766E+0
1.10210780E+3	5.66420100E-1	2.65894510E+0
1.10210911E+3	5.67936000E-1	2.66618365E+0
1.10210332E+3	5.69448000E-1	2.67336067E+0
1.10209900E+3	5.71068800E-1	2.68061474E+0
1.10210850E+3	5.72336000E-1	2.68782914E+0
1.10210553E+3	5.73879100E-1	2.69498161E+0
1.10211052E+3	5.75433800E-1	2.70205877E+0
1.10210508E+3	5.76774800E-1	2.70926431E+0
1.10209992E+3	5.78267300E-1	2.71550918E+0
1.10210993E+3	5.79565500E-1	2.72276754E+0
1.10210408E+3	5.81244700E-1	2.73000175E+0
1.10210386E+3	5.82663400E-1	2.73720792E+0
1.10209976E+3	5.84105400E-1	2.74443931E+0
1.10208927E+3	5.85695200E-1	2.75169333E+0
1.10210133E+3	5.87238300E-1	2.75878892E+0
1.10208458E+3	5.88730800E-1	2.76604388E+0
1.10206765E+3	5.89935800E-1	2.77322903E+0
1.10206828E+3	5.91642100E-1	2.78047957E+0
1.10208922E+3	5.93095800E-1	2.78774182E+0
1.10208701E+3	5.94456200E-1	2.79495461E+0
1.10208377E+3	5.96011000E-1	2.80221243E+0
1.10208463E+3	5.97639600E-1	2.80945026E+0
1.10208823E+3	5.98941700E-1	2.81635302E+0
1.10208616E+3	6.00414800E-1	2.82365722E+0
1.10208166E+3	6.01740300E-1	2.82999076E+0
1.10208760E+3	6.03298900E-1	2.83725274E+0
1.10207481E+3	6.04822500E-1	2.84450488E+0
1.10208121E+3	6.06369500E-1	2.85173131E+0
1.10208141E+3	6.07726000E-1	2.85900179E+0
1.10208357E+3	6.09191400E-1	2.86631806E+0
1.10207304E+3	6.10645100E-1	2.87351690E+0
1.10204580E+3	6.12164900E-1	2.88078836E+0
1.10207835E+3	6.13649600E-1	2.88807740E+0
1.10207299E+3	6.15251000E-1	2.89541330E+0
1.10207648E+3	6.16763100E-1	2.90273422E+0
1.10207450E+3	6.18251700E-1	2.91009798E+0
1.10204478E+3	6.19798700E-1	2.91741349E+0
1.10203041E+3	6.21225200E-1	2.92473186E+0
1.10205608E+3	6.22589500E-1	2.93208985E+0
1.10205617E+3	6.24237500E-1	2.93950065E+0
1.10205475E+3	6.25477500E-1	2.94682215E+0
1.10205160E+3	6.27075000E-1	2.95324965E+0
1.10204809E+3	6.28590800E-1	2.96069327E+0
1.10205007E+3	6.30048400E-1	2.96811034E+0
1.10204953E+3	6.31548800E-1	2.97547115E+0
1.10204778E+3	6.32866400E-1	2.98292488E+0
1.10204055E+3	6.34331800E-1	2.99029758E+0
1.10204484E+3	6.35874900E-1	2.99778700E+0
1.10203322E+3	6.37348000E-1	3.00532575E+0
1.10203647E+3	6.38996000E-1	3.01288314E+0
1.10203845E+3	6.40492400E-1	3.02060241E+0
1.10203331E+3	6.41802300E-1	3.02836957E+0
1.10203989E+3	6.43384300E-1	3.03612403E+0
1.10203246E+3	6.44857400E-1	3.04427926E+0
1.10202845E+3	6.46260600E-1	3.05209311E+0
1.10203737E+3	6.47865900E-1	3.06042322E+0
1.10203588E+3	6.49210700E-1	3.06863876E+0
1.10202940E+3	6.50726600E-1	3.07726868E+0
1.10201683E+3	6.52203600E-1	3.08588629E+0
1.10199265E+3	6.53991600E-1	3.09494479E+0
1.10201917E+3	6.55429800E-1	3.10550881E+0
1.10201449E+3	6.57031200E-1	3.11486214E+0
1.10201998E+3	6.58391500E-1	3.12452258E+0
1.10201152E+3	6.60218400E-1	3.13501144E+0
1.10201080E+3	6.61501100E-1	3.14659727E+0
1.10200985E+3	6.63102400E-1	3.15715629E+0
1.10201116E+3	6.64517300E-1	3.16814107E+0
1.10201706E+3	6.66153700E-1	3.18019833E+0
1.10201372E+3	6.67805600E-1	3.19394460E+0
1.10201228E+3	6.69313700E-1	3.21258474E+0
1.10202241E+3	6.70635200E-1	3.23080883E+0
1.10201764E+3	6.72244500E-1	3.25110727E+0
1.10201097E+3	6.73876900E-1	3.27073126E+0
1.10201723E+3	6.75474400E-1	3.29531304E+0
1.10200818E+3	6.76803700E-1	3.31934586E+0
1.10200845E+3	6.78249600E-1	3.34169566E+0
1.10201777E+3	6.79932600E-1	3.36570822E+0
1.10201142E+3	6.81421300E-1	3.38912012E+0
1.10200035E+3	6.82976200E-1	3.41697809E+0
1.10200850E+3	6.84565800E-1	3.44135019E+0
1.10199882E+3	6.85910700E-1	3.46629539E+0
1.10200120E+3	6.87613200E-1	3.49092213E+0
1.10201512E+3	6.89183500E-1	3.51947182E+0
1.10199153E+3	6.90648800E-1	3.54448915E+0
1.10199712E+3	6.92121900E-1	3.57025860E+0
1.10199325E+3	6.93641700E-1	3.59513431E+0
1.10198875E+3	6.95231400E-1	3.61974258E+0
1.10200545E+3	6.96720100E-1	3.64494955E+0
1.10198213E+3	6.98127200E-1	3.66313464E+0
1.10198564E+3	6.99763500E-1	3.67799949E+0
1.10197979E+3	7.01341600E-1	3.69040323E+0
1.10197893E+3	7.02978000E-1	3.70234841E+0
1.10198240E+3	7.04412300E-1	3.71166747E+0
1.10198731E+3	7.05932000E-1	3.72017763E+0
1.10198532E+3	7.07498500E-1	3.72834435E+0
1.10198296E+3	7.08975500E-1	3.73725894E+0
1.10197344E+3	7.10522500E-1	3.74517815E+0
1.10197497E+3	7.11929500E-1	3.75313487E+0
1.10197006E+3	7.13503700E-1	3.76098856E+0
1.10196979E+3	7.15291700E-1	3.76889753E+0
1.10197596E+3	7.16780400E-1	3.77784002E+0
1.10196898E+3	7.18175700E-1	3.78577810E+0
1.10196128E+3	7.19590600E-1	3.79371023E+0
1.10196551E+3	7.21269700E-1	3.80162089E+0
1.10196186E+3	7.22758300E-1	3.81048021E+0
1.10195700E+3	7.24297600E-1	3.81847257E+0
1.10195700E+3	7.25774600E-1	3.82642201E+0
1.10195268E+3	7.27317700E-1	3.83432301E+0
1.10195270E+3	7.29117300E-1	3.84225519E+0
1.10195783E+3	7.30446600E-1	3.85108132E+0
1.10194409E+3	7.31880900E-1	3.85897196E+0
1.10194090E+3	7.33575600E-1	3.86689174E+0
1.10194409E+3	7.35246900E-1	3.87482316E+0
1.10194126E+3	7.36681200E-1	3.88375702E+0
1.10192518E+3	7.38092100E-1	3.89164930E+0
1.10193171E+3	7.39716800E-1	3.89952679E+0
1.10193788E+3	7.41201600E-1	3.90748664E+0
1.10193297E+3	7.42709800E-1	3.91602148E+0
1.10192171E+3	7.44315100E-1	3.92392692E+0
1.10191482E+3	7.45694900E-1	3.93179510E+0
1.10192525E+3	7.47245700E-1	3.93972307E+0
1.10192511E+3	7.48820000E-1	3.94757327E+0
1.10191228E+3	7.50273700E-1	3.95651721E+0
1.10192056E+3	7.51983800E-1	3.96440719E+0
1.10191273E+3	7.53429800E-1	3.97230417E+0
1.10191156E+3	7.54879600E-1	3.98019479E+0
1.10191309E+3	7.56457600E-1	3.98905402E+0
1.10190683E+3	7.57954100E-1	3.99690794E+0
1.10190899E+3	7.59477800E-1	4.00486918E+0
1.10191201E+3	7.61254100E-1	4.01271992E+0
1.10190138E+3	7.62777800E-1	4.02159976E+0
1.10189692E+3	7.63936000E-1	4.02953806E+0
1.10190697E+3	7.65393600E-1	4.03606442E+0
1.10190225E+3	7.66921200E-1	4.04392778E+0
1.10190585E+3	7.68542000E-1	4.05183665E+0
1.10189968E+3	7.70143400E-1	4.06077843E+0
1.10190374E+3	7.71624300E-1	4.06862720E+0
1.10188491E+3	7.73093500E-1	4.07652190E+0
1.10188637E+3	7.74815400E-1	4.08442858E+0
1.10188633E+3	7.76168100E-1	4.09333347E+0
1.10188012E+3	7.77687800E-1	4.10117446E+0
1.10188678E+3	7.79141500E-1	4.10905217E+0
1.10188458E+3	7.80754600E-1	4.11693470E+0
1.10188066E+3	7.82371500E-1	4.12487720E+0
1.10187332E+3	7.83833000E-1	4.13376474E+0
1.10187499E+3	7.85321700E-1	4.14168050E+0
1.10186598E+3	7.86849200E-1	4.14958472E+0
1.10184873E+3	7.88540000E-1	4.15750004E+0
1.10184698E+3	7.90052000E-1	4.16604879E+0
1.10185679E+3	7.91494000E-1	4.17400797E+0
1.10184520E+3	7.92920500E-1	4.18185768E+0
1.10185580E+3	7.94444100E-1	4.18978802E+0
1.10183689E+3	7.96099900E-1	4.19766581E+0
1.10184432E+3	7.97771400E-1	4.20653694E+0
1.10184396E+3	7.99050100E-1	4.21442457E+0
1.10181681E+3	8.00542700E-1	4.22234467E+0
1.10183422E+3	8.02315100E-1	4.23015615E+0
1.10180991E+3	8.03718300E-1	4.23907668E+0
1.10182022E+3	8.05280800E-1	4.24698506E+0
1.10180428E+3	8.06785000E-1	4.25489529E+0
1.10182067E+3	8.08413600E-1	4.26279723E+0
1.10182013E+3	8.09945000E-1	4.27163128E+0
1.10180405E+3	8.11542600E-1	4.27953484E+0
1.10179057E+3	8.13000100E-1	4.28741366E+0
1.10179557E+3	8.14446100E-1	4.29532303E+0
1.10178364E+3	8.16152400E-1	4.30324071E+0
1.10178053E+3	8.17711100E-1	4.31211854E+0
1.10179084E+3	8.19052000E-1	4.31998927E+0
1.10179638E+3	8.20556300E-1	4.32783599E+0
1.10180417E+3	8.22355800E-1	4.33572461E+0
1.10179445E+3	8.23809500E-1	4.34459685E+0
1.10179364E+3	8.25197200E-1	4.35231885E+0
1.10178224E+3	8.26689800E-1	4.36030437E+0
1.10178454E+3	8.28182300E-1	4.36818802E+0
1.10178431E+3	8.29845900E-1	4.37610597E+0
1.10178126E+3	8.31377300E-1	4.38499373E+0
1.10178162E+3	8.32912700E-1	4.39286178E+0
1.10177013E+3	8.34486900E-1	4.40075693E+0
1.10176369E+3	8.35940600E-1	4.40865413E+0
1.10175996E+3	8.37538100E-1	4.41715838E+0
1.10176162E+3	8.38949000E-1	4.42499826E+0
1.10176095E+3	8.40550400E-1	4.43295145E+0
1.10176464E+3	8.42225600E-1	4.44078457E+0
1.10176117E+3	8.43601600E-1	4.44967501E+0
1.10175482E+3	8.45109700E-1	4.45747737E+0
1.10173515E+3	8.46586700E-1	4.46541272E+0
1.10174186E+3	8.48289200E-1	4.47331489E+0
1.10172997E+3	8.49711800E-1	4.48109426E+0
1.10172997E+3	8.51235500E-1	4.48993546E+0
1.10173699E+3	8.52817400E-1	4.49785664E+0
1.10173632E+3	8.54224500E-1	4.50570085E+0
1.10172502E+3	8.56078500E-1	4.51361598E+0
1.10171425E+3	8.57407900E-1	4.52248331E+0
1.10171268E+3	8.58997500E-1	4.53032622E+0
1.10171218E+3	8.60486200E-1	4.53819199E+0
1.10170588E+3	8.62033200E-1	4.54598567E+0
1.10170358E+3	8.63514100E-1	4.55386843E+0
1.10170682E+3	8.65049500E-1	4.56263853E+0
1.10170300E+3	8.66491400E-1	4.57052702E+0
1.10170151E+3	8.68190100E-1	4.57836801E+0
1.10167810E+3	8.69717600E-1	4.58623865E+0
1.10169093E+3	8.71217900E-1	4.59512149E+0
1.10169858E+3	8.72660000E-1	4.60294008E+0
1.10168913E+3	8.74067000E-1	4.61076676E+0
1.10169260E+3	8.75831700E-1	4.61860409E+0
1.10169054E+3	8.77293100E-1	4.62748523E+0
1.10168665E+3	8.78875100E-1	4.63531848E+0
1.10168148E+3	8.80472600E-1	4.64321135E+0
1.10168377E+3	8.81852400E-1	4.65110336E+0
1.10167837E+3	8.83461600E-1	4.65897588E+0
1.10167711E+3	8.84985300E-1	4.66747415E+0
1.10167728E+3	8.86582800E-1	4.67542859E+0
1.10167988E+3	8.87923700E-1	4.68323206E+0
1.10168051E+3	8.89645700E-1	4.69108911E+0
1.10167195E+3	8.91180900E-1	4.69990049E+0
1.10166200E+3	8.92564700E-1	4.70778285E+0
1.10166470E+3	8.94166100E-1	4.71563766E+0
1.10166128E+3	8.95841300E-1	4.72348791E+0
1.10166155E+3	8.97322300E-1	4.73222563E+0
1.10165205E+3	8.98706000E-1	4.74017194E+0
1.10165466E+3	9.00202400E-1	4.74795494E+0
1.10164390E+3	9.01757100E-1	4.75576906E+0
1.10163629E+3	9.03506300E-1	4.76364381E+0
1.10163863E+3	9.04847200E-1	4.77247102E+0
1.10163451E+3	9.06370900E-1	4.78033285E+0
1.10163802E+3	9.07871200E-1	4.78823605E+0
1.10162861E+3	9.09694200E-1	4.79601631E+0
1.10163735E+3	9.11151800E-1	4.80496265E+0
1.10163113E+3	9.12702700E-1	4.81279939E+0
1.10163523E+3	9.13997000E-1	4.82069436E+0
1.10163526E+3	9.15540000E-1	4.82853790E+0
1.10159894E+3	9.17219200E-1	4.83641699E+0
1.10161628E+3	9.18637800E-1	4.84521344E+0
1.10162276E+3	9.20169400E-1	4.85305407E+0
1.10161173E+3	9.21638600E-1	4.86086470E+0
1.10160205E+3	9.23348800E-1	4.86867153E+0
1.10161597E+3	9.24895800E-1	4.87753907E+0
1.10161646E+3	9.26450500E-1	4.88532578E+0
1.10162132E+3	9.27834300E-1	4.89320053E+0
1.10159133E+3	9.29595100E-1	4.90111701E+0
1.10160286E+3	9.31021500E-1	4.90990433E+0
1.10161438E+3	9.32381900E-1	4.91745009E+0
1.10161629E+3	9.33952200E-1	4.92528893E+0
1.10161816E+3	9.35437000E-1	4.93310233E+0
1.10160033E+3	9.37236700E-1	4.94098594E+0
1.10161096E+3	9.38702000E-1	4.94986046E+0
1.10160808E+3	9.40046900E-1	4.95770941E+0
1.10160889E+3	9.41543300E-1	4.96561001E+0
1.10160602E+3	9.43304100E-1	4.97347234E+0
1.10160054E+3	9.44699500E-1	4.98218811E+0
1.10159730E+3	9.46223200E-1	4.99005414E+0
1.10160333E+3	9.47797300E-1	4.99791324E+0
1.10158491E+3	9.49406500E-1	5.00576515E+0
1.10158753E+3	9.51023400E-1	5.01460604E+0
1.10159179E+3	9.52504300E-1	5.02246121E+0
1.10158739E+3	9.53993000E-1	5.03028910E+0
1.10158914E+3	9.55528400E-1	5.03814538E+0
1.10158748E+3	9.56966500E-1	5.04588468E+0
1.10158644E+3	9.58540700E-1	5.05470425E+0
1.10158415E+3	9.60114900E-1	5.06248590E+0
1.10157671E+3	9.61510300E-1	5.07037259E+0
1.10156449E+3	9.63205000E-1	5.07822856E+0
1.10155026E+3	9.64825700E-1	5.08705586E+0
1.10157602E+3	9.66306600E-1	5.09487261E+0
1.10156872E+3	9.67682600E-1	5.10271186E+0
1.10157205E+3	9.69194600E-1	5.11051006E+0
1.10155836E+3	9.70827100E-1	5.11837323E+0
1.10157329E+3	9.72315800E-1	5.12716359E+0
1.10156892E+3	9.73812200E-1	5.13501514E+0
1.10157167E+3	9.75289200E-1	5.14284593E+0
1.10155568E+3	9.77143300E-1	5.15066698E+0
1.10156082E+3	9.78402600E-1	5.15951266E+0
1.10156235E+3	9.79922400E-1	5.16704015E+0
1.10155868E+3	9.80264500E-1	5.17486209E+0
1.10156071E+3	9.80112800E-1	5.17582966E+0
1.10156566E+3	9.80248900E-1	5.17582206E+0
1.10156332E+3	9.80225600E-1	5.17581919E+0
1.10155729E+3	9.80070100E-1	5.17579232E+0
1.10155013E+3	9.80295600E-1	5.17581101E+0
1.10155625E+3	9.80171100E-1	5.17578329E+0
1.10156350E+3	9.80248900E-1	5.17578275E+0
1.10156809E+3	9.80093400E-1	5.17579608E+0
1.10156449E+3	9.80291700E-1	5.17576428E+0
1.10155094E+3	9.80283800E-1	5.17580560E+0
1.10156535E+3	9.80136200E-1	5.17582662E+0
1.10157021E+3	9.80097300E-1	5.17579482E+0
1.10156174E+3	9.80109000E-1	5.17578995E+0
1.10156071E+3	9.80136200E-1	5.17576106E+0
1.10156446E+3	9.80109000E-1	5.17581530E+0
1.10157201E+3	9.80105100E-1	5.17581137E+0
1.10156557E+3	9.80256700E-1	5.17582756E+0
1.10156390E+3	9.80283800E-1	5.17581146E+0
1.10156611E+3	9.80264500E-1	5.17586449E+0
1.10157237E+3	9.80132300E-1	5.17585394E+0
1.10157354E+3	9.80101200E-1	5.17582532E+0
1.10154157E+3	9.80283800E-1	5.17579107E+0
1.10155368E+3	9.80124600E-1	5.17582532E+0
1.10156039E+3	9.80124600E-1	5.17581276E+0
1.10156917E+3	9.80268400E-1	5.17581544E+0
1.10156552E+3	9.80105100E-1	5.17583994E+0
1.10156341E+3	9.80109000E-1	5.17581021E+0
1.10155341E+3	9.80307200E-1	5.17583511E+0
1.10153355E+3	9.80128400E-1	5.17578069E+0
1.10153589E+3	9.80093400E-1	5.17575753E+0
1.10154620E+3	9.80311100E-1	5.17578861E+0
1.10155363E+3	9.80233400E-1	5.17579375E+0
1.10156129E+3	9.80237300E-1	5.17580113E+0
1.10156471E+3	9.80151700E-1	5.17581522E+0
1.10155836E+3	9.80225600E-1	5.17574796E+0
1.10156295E+3	9.80120700E-1	5.17575565E+0
1.10156804E+3	9.80175100E-1	5.17576942E+0
1.10156935E+3	9.80272200E-1	5.17578340E+0
1.10157043E+3	9.80268400E-1	5.17579181E+0
1.10157412E+3	9.80089600E-1	5.17578980E+0
1.10156097E+3	9.80210000E-1	5.17580200E+0
1.10156885E+3	9.80147800E-1	5.17579069E+0
1.10156111E+3	9.80171100E-1	5.17580616E+0
1.10155719E+3	9.80241100E-1	5.17583666E+0
1.10155836E+3	9.80225600E-1	5.17582278E+0
1.10156669E+3	9.80178900E-1	5.17581106E+0
1.10156954E+3	9.80143900E-1	5.17581388E+0
1.10156369E+3	9.80264500E-1	5.17582135E+0
1.10156414E+3	9.80132300E-1	5.17582282E+0
1.10156432E+3	9.80303400E-1	5.17579492E+0
1.10156846E+3	9.80031300E-1	5.17576034E+0
1.10156242E+3	9.80260600E-1	5.17579105E+0
1.10156031E+3	9.80291700E-1	5.17574096E+0
1.10156611E+3	9.80132300E-1	5.17573010E+0
