# Begin of measurement: 19.07.2019 14:08:32
# R-Sample[Ohm]	I-Coil[A]	U-Magnetometer[V]
# Kei2000	HP E3631A +6V : I	Kei2000
8.51954150E+2	-1.78291400E-2	-1.79371090E-1
8.51242068E+2	-1.79185400E-2	-1.79378510E-1
8.52038820E+2	-1.80001600E-2	-1.79371391E-1
8.51809049E+2	-1.79885000E-2	-1.79371302E-1
8.51446254E+2	-1.79729500E-2	-1.79412621E-1
8.51908653E+2	-1.64570700E-2	-1.79397954E-1
8.52208318E+2	-1.48206900E-2	-1.72143172E-1
8.51262357E+2	-1.36701700E-2	-1.64794974E-1
8.50686982E+2	-1.22125900E-2	-1.58413848E-1
8.50848502E+2	-1.05451200E-2	-1.51168592E-1
8.51473972E+2	-9.09919600E-3	-1.43808231E-1
8.51444703E+2	-7.75044700E-3	-1.36613595E-1
8.51348072E+2	-6.26177100E-3	-1.29274967E-1
8.51979237E+2	-4.78864100E-3	-1.22043162E-1
8.52583701E+2	-3.19501900E-3	-1.14728369E-1
8.52109726E+2	-1.71411600E-3	-1.07438261E-1
8.53267991E+2	-1.47701600E-4	-1.00135139E-1
8.52334142E+2	1.21659500E-3	-9.28307210E-2
8.51840403E+2	2.54202200E-3	-8.54911990E-2
8.51658263E+2	3.99183000E-3	-7.94595000E-2
8.51712252E+2	5.50382800E-3	-7.21256573E-2
8.51340631E+2	6.89533300E-3	-6.48122954E-2
8.50942541E+2	8.56669300E-3	-5.75381959E-2
8.51448212E+2	9.88823400E-3	-5.02479085E-2
8.51696590E+2	1.15246100E-2	-4.29275259E-2
8.51994229E+2	1.29744200E-2	-3.55984233E-2
8.52006657E+2	1.43426000E-2	-2.83363530E-2
8.51834243E+2	1.59129000E-2	-2.11368431E-2
8.52303308E+2	1.74365600E-2	-1.37866783E-2
8.53012306E+2	1.89407900E-2	-6.48141040E-3
8.51804954E+2	2.02856500E-2	8.33297060E-4
8.51664150E+2	2.17665500E-2	8.17258595E-3
8.52605923E+2	2.33990500E-2	1.54953738E-2
8.52536444E+2	2.45728800E-2	2.27663780E-2
8.51851054E+2	2.61393000E-2	2.91595634E-2
8.51007983E+2	2.74919300E-2	3.61623477E-2
8.51569175E+2	2.91127700E-2	4.34682768E-2
8.51970110E+2	3.04654000E-2	5.08000978E-2
8.51749470E+2	3.20978900E-2	5.81543225E-2
8.52577096E+2	3.34000000E-2	6.54423196E-2
8.52455609E+2	3.50907900E-2	7.27192266E-2
8.52695485E+2	3.63618000E-2	8.00127240E-2
8.53611458E+2	3.79554300E-2	8.73227225E-2
8.52999203E+2	3.95140600E-2	9.45725302E-2
8.52840883E+2	4.06879000E-2	1.01889236E-1
8.52005061E+2	4.22037900E-2	1.08265735E-1
8.52151629E+2	4.38051800E-2	1.15611642E-1
8.52421126E+2	4.51656000E-2	1.22915021E-1
8.52785948E+2	4.67786500E-2	1.30182090E-1
8.51890598E+2	4.82789900E-2	1.37495039E-1
8.51629162E+2	4.96549500E-2	1.44806289E-1
8.51648749E+2	5.11125300E-2	1.52100323E-1
8.52256681E+2	5.27722300E-2	1.59402674E-1
8.52350025E+2	5.42997800E-2	1.66786100E-1
8.52255888E+2	5.57767900E-2	1.74059294E-1
8.52605490E+2	5.70711300E-2	1.81383379E-1
8.52006159E+2	5.83732300E-2	1.87776564E-1
8.51695732E+2	5.98230400E-2	1.95077842E-1
8.51726171E+2	6.12767300E-2	2.02348622E-1
8.52599501E+2	6.29442000E-2	2.09564756E-1
8.52171801E+2	6.44639700E-2	2.16860668E-1
8.51086943E+2	6.59993000E-2	2.24263367E-1
8.51093788E+2	6.73402700E-2	2.31510804E-1
8.50744456E+2	6.88134000E-2	2.38802423E-1
8.50726084E+2	7.02476500E-2	2.46116758E-1
8.50765889E+2	7.18801500E-2	2.53472280E-1
8.51087552E+2	7.33260800E-2	2.60725664E-1
8.51662066E+2	7.45310100E-2	2.67744099E-1
8.52083984E+2	7.61751600E-2	2.74141264E-1
8.52124915E+2	7.74928100E-2	2.81420407E-1
8.53374550E+2	7.89970400E-2	2.88716811E-1
8.52071286E+2	8.06217600E-2	2.96075775E-1
8.52242530E+2	8.19355300E-2	3.03369074E-1
8.51808139E+2	8.35835600E-2	3.10693649E-1
8.51546478E+2	8.51460800E-2	3.17921097E-1
8.50926253E+2	8.64481900E-2	3.25286321E-1
8.51097047E+2	8.80651400E-2	3.32515960E-1
8.51519460E+2	8.94216600E-2	3.39756332E-1
8.50866680E+2	9.10269500E-2	3.47113552E-1
8.51358618E+2	9.24417700E-2	3.54403918E-1
8.50710206E+2	9.39343400E-2	3.61653769E-1
8.50984250E+2	9.53608200E-2	3.68989972E-1
8.51955878E+2	9.67056800E-2	3.76279801E-1
8.52526166E+2	9.82720900E-2	3.82596428E-1
8.52687098E+2	9.96169700E-2	3.89879863E-1
8.52350329E+2	1.01198900E-1	3.97156233E-1
8.51964020E+2	1.02582600E-1	4.04436582E-1
8.51244372E+2	1.04075200E-1	4.11768715E-1
8.51451954E+2	1.05630000E-1	4.19099569E-1
8.51179711E+2	1.07278000E-1	4.26382422E-1
8.51278324E+2	1.08755000E-1	4.33687590E-1
8.51126397E+2	1.10037700E-1	4.40935607E-1
8.51204116E+2	1.11530300E-1	4.48223513E-1
8.51887741E+2	1.13096700E-1	4.55558240E-1
8.52236128E+2	1.14600900E-1	4.62789309E-1
8.51756032E+2	1.16015700E-1	4.70103957E-1
8.51261123E+2	1.17488800E-1	4.77487873E-1
8.51627025E+2	1.18810400E-1	4.83781828E-1
8.51922890E+2	1.20427300E-1	4.91144905E-1
8.51338310E+2	1.21706100E-1	4.98381386E-1
8.52391305E+2	1.23272500E-1	5.05339361E-1
8.51847494E+2	1.24804000E-1	5.12680795E-1
8.51107403E+2	1.26312100E-1	5.20004163E-1
8.51510635E+2	1.27719100E-1	5.27274808E-1
8.51935975E+2	1.29219500E-1	5.34607074E-1
8.51762390E+2	1.30828600E-1	5.41844896E-1
8.51407249E+2	1.32301800E-1	5.49139152E-1
8.50890500E+2	1.33716600E-1	5.56441145E-1
8.51555123E+2	1.35251900E-1	5.63678296E-1
8.51986993E+2	1.36612300E-1	5.70968215E-1
8.51236590E+2	1.38167100E-1	5.78274142E-1
8.52563198E+2	1.39659600E-1	5.85528063E-1
8.52628452E+2	1.40903400E-1	5.92830502E-1
8.51809246E+2	1.42310500E-1	5.99217828E-1
8.52065639E+2	1.43970200E-1	6.06538290E-1
8.52475850E+2	1.45404500E-1	6.13835631E-1
8.51963605E+2	1.46897000E-1	6.21081860E-1
8.51820774E+2	1.48533400E-1	6.28446100E-1
8.52029211E+2	1.49928800E-1	6.35708338E-1
8.51344416E+2	1.51460200E-1	6.42968341E-1
8.51237968E+2	1.52785600E-1	6.50245693E-1
8.51399396E+2	1.54289900E-1	6.57587306E-1
8.51436184E+2	1.55860200E-1	6.64827632E-1
8.50829108E+2	1.57449900E-1	6.72155382E-1
8.50895265E+2	1.58930800E-1	6.79363422E-1
8.50945787E+2	1.60244600E-1	6.86665012E-1
8.51740002E+2	1.61912100E-1	6.93929441E-1
8.52076906E+2	1.63206400E-1	7.01207509E-1
8.52133687E+2	1.64803900E-1	7.08525198E-1
8.51499594E+2	1.66043800E-1	7.15758101E-1
8.51239388E+2	1.67563600E-1	7.22153342E-1
8.51886262E+2	1.69126100E-1	7.29464412E-1
8.52735006E+2	1.70463200E-1	7.36411387E-1
8.51726591E+2	1.72049000E-1	7.43726392E-1
8.50914454E+2	1.73475500E-1	7.50981297E-1
8.51864198E+2	1.75045800E-1	7.58241791E-1
8.52133871E+2	1.76402400E-1	7.65638312E-1
8.51945888E+2	1.77953200E-1	7.72864070E-1
8.51241146E+2	1.79546800E-1	7.80183772E-1
8.51695034E+2	1.81020000E-1	7.87412963E-1
8.51331428E+2	1.82357100E-1	7.94634285E-1
8.51375376E+2	1.83896300E-1	8.01925311E-1
8.51059590E+2	1.85315000E-1	8.09221047E-1
8.50628707E+2	1.86978600E-1	8.16541463E-1
8.50282352E+2	1.88374000E-1	8.23858973E-1
8.49947024E+2	1.89936500E-1	8.31078371E-1
8.50101967E+2	1.91098700E-1	8.38332873E-1
8.50665320E+2	1.92711700E-1	8.44700970E-1
8.50357459E+2	1.94173200E-1	8.51839204E-1
8.50002131E+2	1.95646300E-1	8.59134578E-1
8.52323074E+2	1.97057300E-1	8.66409472E-1
8.52866884E+2	1.98810300E-1	8.73736730E-1
8.52916731E+2	2.00061800E-1	8.81047621E-1
8.52553575E+2	2.01507800E-1	8.88317596E-1
8.53158850E+2	2.03124700E-1	8.95629158E-1
8.53150339E+2	2.04461800E-1	9.02894750E-1
8.53548364E+2	2.06199200E-1	9.10108468E-1
8.53448040E+2	2.07493500E-1	9.17328448E-1
8.53700065E+2	2.08958900E-1	9.24640815E-1
8.53799578E+2	2.10579700E-1	9.31922550E-1
8.53190251E+2	2.12146100E-1	9.39192971E-1
8.51691430E+2	2.13452100E-1	9.46489195E-1
8.50692850E+2	2.14905800E-1	9.53790025E-1
8.51168800E+2	2.16153500E-1	9.61026416E-1
8.51165242E+2	2.17805500E-1	9.67155450E-1
8.50755662E+2	2.19193100E-1	9.74398593E-1
8.49990986E+2	2.20708900E-1	9.81669193E-1
8.51125212E+2	2.22314200E-1	9.88940554E-1
8.52035323E+2	2.23729100E-1	9.96216207E-1
8.50493522E+2	2.25283800E-1	1.00347303E+0
8.50464164E+2	2.26791900E-1	1.01080190E+0
8.51361269E+2	2.28222300E-1	1.01804782E+0
8.51789355E+2	2.29644900E-1	1.02513740E+0
8.51244239E+2	2.31083100E-1	1.03247530E+0
8.50544135E+2	2.32575600E-1	1.03973582E+0
8.51080073E+2	2.34044900E-1	1.04706419E+0
8.51105199E+2	2.35622900E-1	1.05429951E+0
8.51261088E+2	2.37185500E-1	1.06158456E+0
8.51999918E+2	2.38678000E-1	1.06884268E+0
8.51838580E+2	2.39867400E-1	1.07606946E+0
8.51390095E+2	2.41278400E-1	1.08242213E+0
8.51801621E+2	2.42755400E-1	1.08966706E+0
8.51666364E+2	2.44384000E-1	1.09695948E+0
8.51473821E+2	2.45861000E-1	1.10418045E+0
8.51090403E+2	2.47411800E-1	1.11144501E+0
8.51850531E+2	2.48818900E-1	1.11872621E+0
8.51724271E+2	2.50241500E-1	1.12596676E+0
8.52213731E+2	2.51734000E-1	1.13325775E+0
8.51743972E+2	2.53269400E-1	1.14048431E+0
8.50780540E+2	2.54863000E-1	1.14773639E+0
8.50456829E+2	2.56367200E-1	1.15495914E+0
8.50595472E+2	2.57844200E-1	1.16226977E+0
8.51380141E+2	2.59204600E-1	1.16954703E+0
8.51686381E+2	2.60662200E-1	1.17675937E+0
8.51477652E+2	2.62321900E-1	1.18407146E+0
8.51695133E+2	2.63655100E-1	1.19131501E+0
8.51097828E+2	2.64965000E-1	1.19829239E+0
8.52195581E+2	2.66531400E-1	1.20469832E+0
8.51850391E+2	2.67922900E-1	1.21196280E+0
8.52064593E+2	2.69551500E-1	1.21922490E+0
8.52419047E+2	2.71044100E-1	1.22645356E+0
8.52663526E+2	2.72482300E-1	1.23375421E+0
8.52430548E+2	2.73854300E-1	1.24102329E+0
8.53236921E+2	2.75498500E-1	1.24824559E+0
8.53307390E+2	2.77006600E-1	1.25552603E+0
8.52361249E+2	2.78355300E-1	1.26271659E+0
8.52490842E+2	2.79972300E-1	1.26991972E+0
8.52280550E+2	2.81317100E-1	1.27721652E+0
8.51705219E+2	2.82782500E-1	1.28445738E+0
8.51314011E+2	2.84325600E-1	1.29171922E+0
8.51586704E+2	2.85752100E-1	1.29896943E+0
8.51329726E+2	2.87407900E-1	1.30623086E+0
8.52363718E+2	2.88912100E-1	1.31346219E+0
8.51537668E+2	2.90233600E-1	1.32057959E+0
8.50740977E+2	2.91664000E-1	1.32692542E+0
8.50778621E+2	2.92985600E-1	1.33417818E+0
8.50602289E+2	2.94520900E-1	1.34147082E+0
8.50069465E+2	2.96114500E-1	1.34866947E+0
8.50668661E+2	2.97517700E-1	1.35593556E+0
8.51276502E+2	2.99010300E-1	1.36320088E+0
8.51860478E+2	3.00662200E-1	1.37042922E+0
8.52097418E+2	3.01952600E-1	1.37758924E+0
8.52611420E+2	3.03491800E-1	1.38494766E+0
8.52432206E+2	3.04964900E-1	1.39214198E+0
8.52727459E+2	3.06523600E-1	1.39946329E+0
8.52762851E+2	3.08082200E-1	1.40661623E+0
8.52231874E+2	3.09434900E-1	1.41386971E+0
8.52250381E+2	3.11075100E-1	1.42112586E+0
8.51043254E+2	3.12346100E-1	1.42838255E+0
8.50631917E+2	3.13745400E-1	1.43533561E+0
8.51418612E+2	3.15125300E-1	1.44172705E+0
8.52406720E+2	3.16738300E-1	1.44892610E+0
8.52469113E+2	3.18293100E-1	1.45613463E+0
8.52295355E+2	3.19626300E-1	1.46341109E+0
8.51975382E+2	3.21266500E-1	1.47066872E+0
8.50725389E+2	3.22603600E-1	1.47795247E+0
8.50973361E+2	3.24135100E-1	1.48514038E+0
8.51591919E+2	3.25546000E-1	1.49232235E+0
8.51971420E+2	3.27026900E-1	1.49956330E+0
8.51909370E+2	3.28511700E-1	1.50677684E+0
8.52011720E+2	3.30171400E-1	1.51403107E+0
8.51445891E+2	3.31730000E-1	1.52133521E+0
8.50830485E+2	3.33160400E-1	1.52850149E+0
8.51779012E+2	3.34470300E-1	1.53579097E+0
8.51275548E+2	3.36021200E-1	1.54302995E+0
8.51229862E+2	3.37642000E-1	1.55022118E+0
8.51140660E+2	3.38994600E-1	1.55748578E+0
8.52408261E+2	3.40296700E-1	1.56376306E+0
8.51967836E+2	3.41781500E-1	1.57104336E+0
8.51199828E+2	3.43289600E-1	1.57830703E+0
8.51376700E+2	3.44848300E-1	1.58550505E+0
8.51527322E+2	3.46387500E-1	1.59274462E+0
8.52091249E+2	3.47845100E-1	1.59999009E+0
8.53067334E+2	3.49423100E-1	1.60712595E+0
8.51487730E+2	3.50721400E-1	1.61440049E+0
8.50888669E+2	3.52167300E-1	1.62157870E+0
8.51309597E+2	3.53776400E-1	1.62886732E+0
8.50702590E+2	3.55152400E-1	1.63605417E+0
8.50626549E+2	3.56722700E-1	1.64334909E+0
8.51342864E+2	3.58199700E-1	1.65056444E+0
8.51095027E+2	3.59770000E-1	1.65777887E+0
8.51837504E+2	3.61087700E-1	1.66474378E+0
8.52996540E+2	3.62724000E-1	1.67196738E+0
8.52682555E+2	3.63979500E-1	1.67922372E+0
8.51418826E+2	3.65332200E-1	1.68558775E+0
8.51571698E+2	3.67034600E-1	1.69280612E+0
8.51760008E+2	3.68534900E-1	1.70007417E+0
8.50874431E+2	3.69887600E-1	1.70732612E+0
8.50490427E+2	3.71469500E-1	1.71455612E+0
8.50912120E+2	3.72849400E-1	1.72177136E+0
8.52560921E+2	3.74361400E-1	1.72894291E+0
8.52272983E+2	3.75943300E-1	1.73617420E+0
8.52251550E+2	3.77502000E-1	1.74346707E+0
8.51984035E+2	3.78815700E-1	1.75062856E+0
8.50899882E+2	3.80440500E-1	1.75781652E+0
8.51197611E+2	3.81929100E-1	1.76506436E+0
8.50933867E+2	3.83157400E-1	1.77225509E+0
8.51623274E+2	3.84774300E-1	1.77911044E+0
8.51489990E+2	3.86321300E-1	1.78634352E+0
8.51745932E+2	3.87394100E-1	1.79353520E+0
8.50973647E+2	3.89007200E-1	1.79982340E+0
8.51903622E+2	3.90499700E-1	1.80711217E+0
8.52592559E+2	3.92116700E-1	1.81430142E+0
8.53475020E+2	3.93601400E-1	1.82149466E+0
8.52983758E+2	3.94981300E-1	1.82876768E+0
8.53422516E+2	3.96536100E-1	1.83589684E+0
8.52549277E+2	3.97880900E-1	1.84313229E+0
8.51429371E+2	3.99416200E-1	1.85038599E+0
8.52391047E+2	4.01044800E-1	1.85758781E+0
8.52971844E+2	4.02405200E-1	1.86478955E+0
8.52133295E+2	4.03979400E-1	1.87206417E+0
8.52213491E+2	4.05402000E-1	1.87922346E+0
8.52310887E+2	4.06762500E-1	1.88650613E+0
8.52585472E+2	4.08274500E-1	1.89341264E+0
8.52986856E+2	4.09949700E-1	1.90060793E+0
8.53021889E+2	4.11096300E-1	1.90781119E+0
8.53077346E+2	4.12577200E-1	1.91418845E+0
8.52891828E+2	4.14030900E-1	1.92140711E+0
8.52505798E+2	4.15620700E-1	1.92862740E+0
8.52634355E+2	4.17214300E-1	1.93581827E+0
8.52733102E+2	4.18512500E-1	1.94304294E+0
8.52080323E+2	4.20040000E-1	1.95018954E+0
8.51447033E+2	4.21688100E-1	1.95741457E+0
8.51819554E+2	4.23056300E-1	1.96460584E+0
8.50630845E+2	4.24630500E-1	1.97182908E+0
8.50312493E+2	4.26076400E-1	1.97917486E+0
8.51384758E+2	4.27491200E-1	1.98635902E+0
8.50742876E+2	4.28948800E-1	1.99356382E+0
8.50443327E+2	4.30519100E-1	2.00076047E+0
8.50366941E+2	4.31953300E-1	2.00798908E+0
8.50679079E+2	4.33228200E-1	2.01528965E+0
8.51916059E+2	4.34751900E-1	2.02154018E+0
8.51539260E+2	4.36232800E-1	2.02876924E+0
8.51915338E+2	4.37725400E-1	2.03600147E+0
8.51790335E+2	4.39268500E-1	2.04319525E+0
8.51460558E+2	4.40908700E-1	2.05042932E+0
8.51050978E+2	4.42218600E-1	2.05766942E+0
8.51320474E+2	4.43874400E-1	2.06487791E+0
8.51263018E+2	4.45297000E-1	2.07214896E+0
8.50763876E+2	4.46653600E-1	2.07934510E+0
8.52179845E+2	4.48258800E-1	2.08657958E+0
8.51732306E+2	4.49801900E-1	2.09383488E+0
8.52361445E+2	4.51166200E-1	2.10099687E+0
8.52394496E+2	4.52845300E-1	2.10823053E+0
8.51737979E+2	4.54124100E-1	2.11550655E+0
8.50212051E+2	4.55651700E-1	2.12242481E+0
8.50114159E+2	4.57019900E-1	2.12971205E+0
8.51030763E+2	4.58368600E-1	2.13690587E+0
8.50464329E+2	4.60020500E-1	2.14330504E+0
8.50617201E+2	4.61380900E-1	2.15052190E+0
8.50714598E+2	4.62865700E-1	2.15780887E+0
8.50871388E+2	4.64463200E-1	2.16499795E+0
8.50879223E+2	4.65878100E-1	2.17226766E+0
8.50786149E+2	4.67289000E-1	2.17955570E+0
8.50856853E+2	4.68785500E-1	2.18673897E+0
8.51186102E+2	4.70313000E-1	2.19407320E+0
8.51812404E+2	4.71980500E-1	2.20132668E+0
8.53014261E+2	4.73313700E-1	2.20854849E+0
8.53869309E+2	4.74942300E-1	2.21572724E+0
8.53531505E+2	4.76314400E-1	2.22299462E+0
8.52890838E+2	4.77764200E-1	2.23022131E+0
8.51390847E+2	4.79186800E-1	2.23756181E+0
8.50533728E+2	4.80733800E-1	2.24481578E+0
8.50274769E+2	4.82203000E-1	2.25223449E+0
8.50914715E+2	4.83528400E-1	2.25859595E+0
8.50740544E+2	4.85059800E-1	2.26591427E+0
8.51200932E+2	4.86529100E-1	2.27323617E+0
8.51621867E+2	4.88076100E-1	2.28674277E+0
8.50977418E+2	4.89658000E-1	2.28782423E+0
8.50416677E+2	4.91224400E-1	2.29617818E+0
8.51460845E+2	4.92763700E-1	2.30348946E+0
8.51713951E+2	4.94085200E-1	2.31074844E+0
8.51661943E+2	4.95671000E-1	2.31816155E+0
8.51408777E+2	4.97151900E-1	2.32554395E+0
8.51674535E+2	4.98481200E-1	2.33291204E+0
8.52664083E+2	5.00055500E-1	2.33934469E+0
8.52319074E+2	5.01412000E-1	2.34668546E+0
8.51907918E+2	5.02819000E-1	2.35419695E+0
8.51469700E+2	5.04292200E-1	2.36144439E+0
8.50829177E+2	5.05854700E-1	2.36908821E+0
8.52245587E+2	5.07323900E-1	2.37672264E+0
8.52208303E+2	5.08820300E-1	2.38412359E+0
8.51787106E+2	5.10316800E-1	2.39198617E+0
8.51518690E+2	5.11720000E-1	2.39973503E+0
8.52041517E+2	5.13364100E-1	2.40798166E+0
8.51356947E+2	5.14907300E-1	2.41582134E+0
8.50981626E+2	5.16263700E-1	2.42472349E+0
8.51498824E+2	5.17900100E-1	2.43332758E+0
8.51135263E+2	5.19377200E-1	2.44194581E+0
8.50571505E+2	5.20757000E-1	2.45140237E+0
8.50010899E+2	5.22059100E-1	2.46148736E+0
8.50032873E+2	5.23641100E-1	2.47091148E+0
8.51269751E+2	5.25160800E-1	2.48074497E+0
8.52246056E+2	5.26672800E-1	2.48921661E+0
8.51946390E+2	5.28157600E-1	2.49882834E+0
8.52455169E+2	5.29642400E-1	2.50979683E+0
8.52750916E+2	5.30963900E-1	2.52036070E+0
8.52648566E+2	5.32573100E-1	2.53336923E+0
8.53510936E+2	5.34100700E-1	2.54772015E+0
8.53087010E+2	5.35465000E-1	2.56449834E+0
8.52354170E+2	5.36945900E-1	2.58560954E+0
8.52287168E+2	5.38551100E-1	2.61057361E+0
8.51693421E+2	5.40113700E-1	2.63527323E+0
8.52437833E+2	5.41536300E-1	2.66054532E+0
8.51406679E+2	5.42958900E-1	2.68351014E+0
8.51508488E+2	5.44447600E-1	2.71219263E+0
8.50905961E+2	5.45901300E-1	2.74060461E+0
8.50671407E+2	5.47218900E-1	2.76974734E+0
8.50300912E+2	5.48742500E-1	2.79512546E+0
8.50101480E+2	5.50308900E-1	2.82410264E+0
8.49948698E+2	5.51583900E-1	2.85123640E+0
8.50278855E+2	5.53127000E-1	2.87486295E+0
8.51411560E+2	5.54650600E-1	2.89189904E+0
8.52188753E+2	5.56104300E-1	2.90411098E+0
8.52839867E+2	5.57581300E-1	2.91580385E+0
8.54040779E+2	5.59217700E-1	2.92645904E+0
8.53048529E+2	5.60636400E-1	2.93698776E+0
8.52319246E+2	5.62171700E-1	2.94707154E+0
8.51410182E+2	5.63551600E-1	2.95538997E+0
8.51222593E+2	5.65172400E-1	2.96332866E+0
8.52495956E+2	5.66637800E-1	2.97131829E+0
8.52856995E+2	5.68223600E-1	2.97916575E+0
8.52391310E+2	5.69327500E-1	2.98717706E+0
8.52837408E+2	5.70796700E-1	2.99420833E+0
8.53295709E+2	5.72452500E-1	3.00214447E+0
8.52635590E+2	5.73789600E-1	3.01002364E+0
8.51334309E+2	5.75208400E-1	3.01786601E+0
8.50723631E+2	5.76833100E-1	3.02579347E+0
8.51505598E+2	5.78306200E-1	3.03377057E+0
8.51298241E+2	5.79709300E-1	3.04169044E+0
8.51059995E+2	5.81225200E-1	3.04967608E+0
8.50890822E+2	5.82838300E-1	3.05762166E+0
8.51265595E+2	5.84303700E-1	3.06552587E+0
8.51311389E+2	5.85846700E-1	3.07352189E+0
8.50692291E+2	5.87183900E-1	3.08140479E+0
8.50056488E+2	5.88668600E-1	3.08933364E+0
8.50307297E+2	5.90204000E-1	3.09727832E+0
8.51317206E+2	5.91778200E-1	3.10525654E+0
8.52161312E+2	5.92917000E-1	3.11320950E+0
8.52572063E+2	5.94541700E-1	3.12016801E+0
8.52535275E+2	5.95929300E-1	3.12809722E+0
8.52317787E+2	5.97515200E-1	3.13607530E+0
8.52838902E+2	5.98976700E-1	3.14367485E+0
8.51456790E+2	6.00492500E-1	3.15166483E+0
8.50711931E+2	6.01868500E-1	3.15960992E+0
8.51100933E+2	6.03318300E-1	3.16754320E+0
8.51823237E+2	6.04896400E-1	3.17546793E+0
8.50918297E+2	6.06416200E-1	3.18340569E+0
8.51087694E+2	6.07850500E-1	3.19136669E+0
8.51379409E+2	6.09467300E-1	3.19933530E+0
8.51967301E+2	6.10956000E-1	3.20717663E+0
8.52121704E+2	6.12421400E-1	3.21514001E+0
8.51259226E+2	6.13914000E-1	3.22309162E+0
8.51168359E+2	6.15387100E-1	3.23099870E+0
8.51094242E+2	6.16774700E-1	3.23898532E+0
8.51163631E+2	6.18220600E-1	3.24689110E+0
8.51504279E+2	6.19713200E-1	3.25382976E+0
8.50903733E+2	6.21194100E-1	3.26177135E+0
8.50915350E+2	6.22698300E-1	3.26966962E+0
8.51108793E+2	6.24097600E-1	3.27758407E+0
8.50675708E+2	6.25454100E-1	3.28551038E+0
8.51324165E+2	6.27152700E-1	3.29345640E+0
8.52396039E+2	6.28517000E-1	3.30139661E+0
8.51715380E+2	6.30168900E-1	3.30926813E+0
8.51948358E+2	6.31622600E-1	3.31720682E+0
8.52814168E+2	6.32975200E-1	3.32521885E+0
8.52208578E+2	6.34549400E-1	3.33304713E+0
8.50558056E+2	6.35948700E-1	3.34104838E+0
8.50537252E+2	6.37554000E-1	3.34887885E+0
8.50524968E+2	6.38922200E-1	3.35684259E+0
8.51674413E+2	6.40609100E-1	3.36471885E+0
8.50926758E+2	6.41926700E-1	3.37268746E+0
8.50809684E+2	6.43205500E-1	3.37959485E+0
8.51602367E+2	6.44713600E-1	3.38753685E+0
8.50529111E+2	6.46295500E-1	3.39514838E+0
8.50119133E+2	6.47792100E-1	3.40299706E+0
8.50793706E+2	6.49405100E-1	3.41096361E+0
8.50744985E+2	6.51022000E-1	3.42721241E+0
8.50915283E+2	6.52526300E-1	3.42782385E+0
8.50978233E+2	6.53878900E-1	3.43676490E+0
8.50844318E+2	6.55507500E-1	3.44367408E+0
8.50511716E+2	6.56965100E-1	3.45260834E+0
8.50786914E+2	6.58605300E-1	3.46047150E+0
8.50493687E+2	6.60129000E-1	3.46836869E+0
8.50153541E+2	6.61761500E-1	3.47628596E+0
8.50297948E+2	6.63269600E-1	3.48524391E+0
8.51193342E+2	6.64781600E-1	3.49316471E+0
8.51084021E+2	6.66087600E-1	3.50109083E+0
8.50459931E+2	6.67568500E-1	3.50903158E+0
8.49865013E+2	6.69430300E-1	3.51695788E+0
8.50472674E+2	6.70775200E-1	3.52568089E+0
8.50359292E+2	6.72162800E-1	3.53358731E+0
8.51048275E+2	6.73760300E-1	3.54150156E+0
8.50740228E+2	6.75571600E-1	3.54942536E+0
8.51961822E+2	6.76986400E-1	3.55828050E+0
8.51630952E+2	6.78389600E-1	3.56620126E+0
8.51985237E+2	6.80053200E-1	3.57413024E+0
8.51399775E+2	6.81409700E-1	3.58203177E+0
8.51487716E+2	6.83073300E-1	3.58984297E+0
8.52108844E+2	6.84589100E-1	3.59879962E+0
8.51038526E+2	6.86085600E-1	3.60674265E+0
8.50396193E+2	6.87690900E-1	3.61462919E+0
8.50105894E+2	6.89370100E-1	3.62256548E+0
8.50668977E+2	6.90691600E-1	3.63150688E+0
8.51352151E+2	6.92355200E-1	3.63936964E+0
8.52766409E+2	6.93661200E-1	3.64726196E+0
8.52160378E+2	6.95107000E-1	3.65484093E+0
8.52240484E+2	6.96941700E-1	3.66962053E+0
8.51934559E+2	6.98290400E-1	3.67162104E+0
8.51199017E+2	6.99899600E-1	3.67950723E+0
8.50324111E+2	7.01477700E-1	3.68744574E+0
8.50409530E+2	7.02985800E-1	3.69533220E+0
8.50166606E+2	7.04396700E-1	3.70427602E+0
8.49771390E+2	7.06149700E-1	3.71208122E+0
8.50298585E+2	7.07459600E-1	3.72004567E+0
8.50684480E+2	7.09243700E-1	3.72794139E+0
8.51253372E+2	7.10658500E-1	3.73679680E+0
8.51040522E+2	7.12061600E-1	3.74470545E+0
8.50759733E+2	7.13690300E-1	3.75257261E+0
8.50885408E+2	7.15229500E-1	3.76046917E+0
8.51033327E+2	7.16889100E-1	3.76838760E+0
8.51223978E+2	7.18234000E-1	3.77726068E+0
8.51010723E+2	7.19757700E-1	3.78514177E+0
8.51219791E+2	7.21289100E-1	3.79301251E+0
8.52340901E+2	7.23022700E-1	3.80095026E+0
8.51425869E+2	7.24581300E-1	3.80985755E+0
8.50096263E+2	7.26112700E-1	3.81773712E+0
8.50521739E+2	7.27473200E-1	3.82561396E+0
8.51257191E+2	7.29086200E-1	3.83351397E+0
8.51887682E+2	7.30567100E-1	3.84229931E+0
8.52161141E+2	7.32149100E-1	3.85020150E+0
8.51773400E+2	7.33552200E-1	3.85811998E+0
8.51752731E+2	7.35153600E-1	3.86601596E+0
8.52024389E+2	7.36692900E-1	3.87390586E+0
8.52052352E+2	7.38204900E-1	3.88276879E+0
8.50903716E+2	7.39864500E-1	3.89065699E+0
8.51430836E+2	7.41112200E-1	3.89852824E+0
8.50898879E+2	7.42962400E-1	3.90610288E+0
8.50743170E+2	7.44291700E-1	3.91501523E+0
8.51722543E+2	7.45850300E-1	3.92287987E+0
8.51924497E+2	7.47304000E-1	3.93077147E+0
8.50824447E+2	7.48901600E-1	3.93865734E+0
8.50306032E+2	7.50436800E-1	3.94652645E+0
8.50675402E+2	7.52088800E-1	3.95539764E+0
8.50818773E+2	7.53534700E-1	3.96322782E+0
8.50586155E+2	7.54945700E-1	3.97102837E+0
8.51251543E+2	7.56745300E-1	3.97895351E+0
8.50686029E+2	7.58261200E-1	3.98783114E+0
8.49960302E+2	7.59722700E-1	3.99567977E+0
8.50046296E+2	7.61098600E-1	4.00353725E+0
8.50733884E+2	7.62878800E-1	4.01142151E+0
8.51236899E+2	7.63936000E-1	4.02035263E+0
8.51823983E+2	7.65518000E-1	4.02677242E+0
8.51133198E+2	7.67018300E-1	4.03463836E+0
8.51061918E+2	7.68429300E-1	4.04251288E+0
8.50612352E+2	7.70120000E-1	4.05043019E+0
8.49839074E+2	7.71616500E-1	4.05929928E+0
8.50419269E+2	7.73182900E-1	4.06718288E+0
8.50914179E+2	7.74663800E-1	4.07506285E+0
8.51322274E+2	7.76280800E-1	4.08286675E+0
8.51703397E+2	7.77715000E-1	4.09170311E+0
8.51174876E+2	7.79273700E-1	4.09955836E+0
8.51956621E+2	7.80754600E-1	4.10739048E+0
8.51668663E+2	7.82266600E-1	4.11535099E+0
8.50236661E+2	7.83953500E-1	4.12325328E+0
8.49856304E+2	7.85446100E-1	4.13207729E+0
8.50957525E+2	7.87004700E-1	4.13991264E+0
8.51005908E+2	7.88411800E-1	4.14785338E+0
8.51249564E+2	7.90048100E-1	4.15539148E+0
8.50326296E+2	7.91521300E-1	4.16424501E+0
8.49761187E+2	7.93188700E-1	4.17209784E+0
8.50221560E+2	7.94541400E-1	4.17999901E+0
8.50584671E+2	7.96197200E-1	4.18784647E+0
8.50606018E+2	7.97732500E-1	4.19674490E+0
8.50627530E+2	7.99310600E-1	4.20461584E+0
8.52104875E+2	8.00779800E-1	4.21245955E+0
8.51899950E+2	8.02307400E-1	4.22028988E+0
8.51024412E+2	8.03823300E-1	4.22817898E+0
8.51297151E+2	8.05292500E-1	4.23696091E+0
8.50674359E+2	8.06843400E-1	4.24478807E+0
8.51172548E+2	8.08320300E-1	4.25261000E+0
8.52194068E+2	8.10088900E-1	4.26051479E+0
8.51161876E+2	8.11457100E-1	4.26939909E+0
8.50158638E+2	8.12961300E-1	4.27727965E+0
8.49592312E+2	8.14527700E-1	4.28513212E+0
8.50040573E+2	8.15993100E-1	4.29300261E+0
8.50583026E+2	8.17777200E-1	4.30095042E+0
8.50784079E+2	8.19265800E-1	4.30977833E+0
8.50531198E+2	8.20801200E-1	4.31759547E+0
8.51466758E+2	8.22289800E-1	4.32545867E+0
8.51409032E+2	8.23770700E-1	4.33331181E+0
8.50975811E+2	8.25344900E-1	4.34211221E+0
8.51650970E+2	8.26786900E-1	4.34997980E+0
8.51932219E+2	8.28396100E-1	4.35789264E+0
8.51632058E+2	8.29943100E-1	4.36572694E+0
8.50719778E+2	8.31459000E-1	4.37455614E+0
8.49946591E+2	8.32990500E-1	4.38244935E+0
8.50381523E+2	8.34576200E-1	4.39026605E+0
8.51102565E+2	8.35921100E-1	4.39813627E+0
8.51402018E+2	8.37681900E-1	4.40572888E+0
8.51481448E+2	8.39081200E-1	4.41454498E+0
8.50956685E+2	8.40686400E-1	4.42238225E+0
8.50615863E+2	8.42070200E-1	4.43025350E+0
8.50818942E+2	8.43733700E-1	4.43812520E+0
8.50200888E+2	8.45381800E-1	4.44693441E+0
8.50117820E+2	8.46715000E-1	4.45476081E+0
8.49470893E+2	8.48359200E-1	4.46264360E+0
8.50737189E+2	8.50011100E-1	4.47042636E+0
8.51173336E+2	8.51418100E-1	4.47920029E+0
8.51709717E+2	8.52883400E-1	4.48712981E+0
8.52197197E+2	8.54403300E-1	4.49498708E+0
8.51734258E+2	8.55926900E-1	4.50284742E+0
8.50976111E+2	8.57621600E-1	4.51071783E+0
8.51394427E+2	8.59184200E-1	4.52646543E+0
8.50870113E+2	8.60614500E-1	4.52721070E+0
8.50002772E+2	8.61990500E-1	4.53606258E+0
8.49720757E+2	8.63828900E-1	4.54290216E+0
8.49906925E+2	8.65208800E-1	4.55180421E+0
8.49245815E+2	8.66666400E-1	4.55962063E+0
8.49978655E+2	8.68275500E-1	4.56743831E+0
8.50646565E+2	8.69616500E-1	4.57527826E+0
8.50968790E+2	8.71431700E-1	4.58317719E+0
8.51208657E+2	8.72951400E-1	4.59190328E+0
8.50605245E+2	8.74409000E-1	4.59977346E+0
8.50176798E+2	8.75940500E-1	4.60759337E+0
8.49898070E+2	8.77456400E-1	4.61546891E+0
8.50999426E+2	8.78956700E-1	4.62430340E+0
8.53257702E+2	8.80492000E-1	4.63216195E+0
8.52809352E+2	8.81976800E-1	4.63998951E+0
8.51308923E+2	8.83589800E-1	4.64787820E+0
8.51231377E+2	8.85074700E-1	4.65632600E+0
8.51996503E+2	8.86726600E-1	4.66425083E+0
8.50816708E+2	8.88133600E-1	4.67206086E+0
8.49916225E+2	8.89563900E-1	4.67993126E+0
8.50822247E+2	8.91410300E-1	4.68778883E+0
8.50603703E+2	8.92747300E-1	4.69666047E+0
8.50756353E+2	8.94216600E-1	4.70447802E+0
8.51358115E+2	8.95709100E-1	4.71233370E+0
8.51156162E+2	8.97431100E-1	4.72011065E+0
8.50328536E+2	8.98857500E-1	4.72892049E+0
8.50819933E+2	9.00396700E-1	4.73670753E+0
8.49925586E+2	9.01838800E-1	4.74461272E+0
8.50552635E+2	9.03533500E-1	4.75244337E+0
8.51540517E+2	9.05204900E-1	4.76025461E+0
8.51856078E+2	9.06611800E-1	4.76912021E+0
8.51722388E+2	9.08182200E-1	4.77698547E+0
8.51081541E+2	9.09698100E-1	4.78483302E+0
8.50802904E+2	9.11241100E-1	4.79264051E+0
8.51747028E+2	9.12834700E-1	4.80141368E+0
8.51278325E+2	9.14323400E-1	4.80922250E+0
8.50271576E+2	9.15652800E-1	4.81708826E+0
8.50405040E+2	9.17479600E-1	4.82489097E+0
8.49811158E+2	9.18859500E-1	4.83375616E+0
8.50011355E+2	9.20297600E-1	4.84149285E+0
8.49852091E+2	9.21797900E-1	4.84936370E+0
8.51653595E+2	9.23438200E-1	4.85713622E+0
8.51800883E+2	9.25070700E-1	4.86496610E+0
8.50563633E+2	9.26532200E-1	4.87377894E+0
8.49787340E+2	9.27939200E-1	4.88160293E+0
8.50599206E+2	9.29478500E-1	4.89661764E+0
8.51234494E+2	9.31180900E-1	4.89729968E+0
8.51081245E+2	9.32685100E-1	4.90576070E+0
8.51294275E+2	9.34173800E-1	4.91366528E+0
8.50749204E+2	9.35538100E-1	4.92147634E+0
8.50309004E+2	9.37050100E-1	4.92928325E+0
8.51071834E+2	9.38806900E-1	4.93711108E+0
8.50955337E+2	9.40369500E-1	4.94589945E+0
8.50066392E+2	9.41920400E-1	4.95371865E+0
8.50162798E+2	9.43249600E-1	4.96155435E+0
8.50616461E+2	9.44905500E-1	4.96934533E+0
8.50579493E+2	9.46409700E-1	4.97814310E+0
8.50301756E+2	9.47987700E-1	4.98597884E+0
8.50559987E+2	9.49367600E-1	4.99380390E+0
8.51489792E+2	9.51050700E-1	5.00164434E+0
8.51205706E+2	9.52453800E-1	5.01043003E+0
8.50871819E+2	9.54183500E-1	5.01825424E+0
8.50712013E+2	9.55602200E-1	5.02608694E+0
8.50843001E+2	9.56993700E-1	5.03375231E+0
8.50539872E+2	9.58824400E-1	5.04156901E+0
8.50490239E+2	9.60173100E-1	5.05039902E+0
8.50041889E+2	9.61685100E-1	5.05825712E+0
8.50984653E+2	9.63212700E-1	5.06607721E+0
8.51569799E+2	9.64942400E-1	5.07392512E+0
8.52676152E+2	9.66260100E-1	5.08263488E+0
8.52067230E+2	9.67826500E-1	5.09046204E+0
8.50638239E+2	9.69443400E-1	5.09827324E+0
8.49744287E+2	9.71009800E-1	5.10610885E+0
8.49796610E+2	9.72615100E-1	5.11488036E+0
8.49917286E+2	9.74092100E-1	5.12271946E+0
8.50699838E+2	9.75506900E-1	5.13055753E+0
8.50982798E+2	9.77112200E-1	5.13834954E+0
8.50748551E+2	9.78725200E-1	5.14620425E+0
8.50243510E+2	9.80182800E-1	5.15470240E+0
8.50633143E+2	9.80062300E-1	5.16255279E+0
8.50713023E+2	9.80101200E-1	5.16246510E+0
8.50581675E+2	9.80213900E-1	5.16246778E+0
8.51379537E+2	9.80256700E-1	5.16245477E+0
8.51557715E+2	9.80151700E-1	5.16244488E+0
8.51762415E+2	9.80132300E-1	5.16244292E+0
8.52325227E+2	9.80272200E-1	5.16240888E+0
8.52245977E+2	9.80077800E-1	5.16240240E+0
8.52171004E+2	9.80206100E-1	5.16240964E+0
8.52890156E+2	9.80085700E-1	5.16238152E+0
8.52473146E+2	9.80116700E-1	5.16234950E+0
8.51999445E+2	9.80190600E-1	5.16234932E+0
8.51569602E+2	9.80268400E-1	5.16233447E+0
8.52058932E+2	9.80186700E-1	5.16231690E+0
8.52180316E+2	9.80109000E-1	5.16232414E+0
8.52571390E+2	9.80058500E-1	5.16230241E+0
8.52386412E+2	9.80163400E-1	5.16227938E+0
8.52269698E+2	9.80081800E-1	5.16226006E+0
8.51682796E+2	9.80143900E-1	5.16229159E+0
8.52050814E+2	9.80070100E-1	5.16222044E+0
8.51400782E+2	9.80233400E-1	5.16226355E+0
8.50259172E+2	9.80190600E-1	5.16226704E+0
8.50367241E+2	9.80039000E-1	5.16221356E+0
8.50664790E+2	9.80039000E-1	5.16221266E+0
8.50841122E+2	9.80178900E-1	5.16219571E+0
8.50812573E+2	9.80171100E-1	5.16217362E+0
8.51485616E+2	9.80159600E-1	5.16220095E+0
8.51353457E+2	9.80042800E-1	5.16219531E+0
8.50741608E+2	9.80042800E-1	5.16215180E+0
8.50600295E+2	9.80225600E-1	5.16217778E+0
8.50958968E+2	9.80077800E-1	5.16220694E+0
8.51558569E+2	9.80194500E-1	5.16219307E+0
8.51696221E+2	9.80058500E-1	5.16221177E+0
8.51899300E+2	9.80066200E-1	5.16222992E+0
8.52048525E+2	9.80050700E-1	5.16222930E+0
8.52215987E+2	9.80143900E-1	5.16220653E+0
8.52455133E+2	9.80004000E-1	5.16221740E+0
8.52302409E+2	9.80202300E-1	5.16220045E+0
8.52198344E+2	9.80031300E-1	5.16218963E+0
8.52536014E+2	9.80272200E-1	5.16224195E+0
8.51997787E+2	9.80143900E-1	5.16224681E+0
8.51879406E+2	9.80198400E-1	5.16220974E+0
8.52289707E+2	9.80112800E-1	5.16219176E+0
8.51930559E+2	9.80058500E-1	5.16221349E+0
8.51478066E+2	9.80213900E-1	5.16216815E+0
8.50793767E+2	9.80046800E-1	5.16219927E+0
8.50450108E+2	9.80027400E-1	5.16218832E+0
8.51018144E+2	9.80213900E-1	5.16215397E+0
8.51389315E+2	9.80233400E-1	5.16216117E+0
8.50764678E+2	9.80077800E-1	5.16212428E+0
8.50913453E+2	9.80190600E-1	5.16213783E+0
8.51824156E+2	9.80074000E-1	5.16214311E+0
8.51598653E+2	9.80140100E-1	5.16216622E+0
8.50983336E+2	9.80046800E-1	5.16210624E+0
8.50600622E+2	9.80163400E-1	5.16206881E+0
8.51740431E+2	9.80101200E-1	5.16206054E+0
8.51488992E+2	9.80190600E-1	5.16207203E+0
8.51441036E+2	9.80070100E-1	5.16205759E+0
8.51482417E+2	9.80217800E-1	5.16209985E+0
8.50727693E+2	9.80062300E-1	5.16209372E+0
8.50316266E+2	9.80178900E-1	5.16211923E+0
8.51884693E+2	9.80229500E-1	5.16211238E+0
8.51504022E+2	9.79996300E-1	5.16210568E+0
8.50537798E+2	9.80007900E-1	5.16214190E+0
8.50282125E+2	9.80085700E-1	5.16214315E+0
8.50501550E+2	9.80070100E-1	5.16216815E+0
8.51334579E+2	9.80046800E-1	5.16214828E+0
8.51202015E+2	9.80070100E-1	5.16215668E+0
8.50440761E+2	9.80081800E-1	5.16211134E+0
8.49916051E+2	9.80190600E-1	5.16211849E+0
8.49842465E+2	9.80093400E-1	5.16212323E+0
8.50025101E+2	9.80093400E-1	5.16210628E+0
8.50285142E+2	9.80039000E-1	5.16209542E+0
8.50804187E+2	9.80074000E-1	5.16212142E+0
8.51251681E+2	9.80066200E-1	5.16216627E+0
8.50708366E+2	9.80081800E-1	5.16212464E+0
8.50325487E+2	9.80221700E-1	5.16214543E+0
8.50679142E+2	9.80245000E-1	5.16221895E+0
8.51017352E+2	9.80066200E-1	5.16220410E+0
8.51800355E+2	9.80046800E-1	5.16220799E+0
8.51989070E+2	9.80035100E-1	5.16216010E+0
8.52132351E+2	9.80186700E-1	5.16219248E+0
8.52864787E+2	9.80155700E-1	5.16217329E+0
8.53026890E+2	9.80035100E-1	5.16220222E+0
8.52939670E+2	9.80217800E-1	5.16217897E+0
8.52518325E+2	9.80101200E-1	5.16220397E+0
8.52713753E+2	9.80109000E-1	5.16223894E+0
8.52378109E+2	9.80225600E-1	5.16222843E+0
8.51946194E+2	9.80217800E-1	5.16221184E+0
8.51962675E+2	9.80132300E-1	5.16225566E+0
8.52210332E+2	9.80015700E-1	5.16221448E+0
8.51704030E+2	9.80089600E-1	5.16220638E+0
8.52080290E+2	9.80093400E-1	5.16219051E+0
8.51660548E+2	9.80264500E-1	5.16219185E+0
8.51295009E+2	9.80089600E-1	5.16218138E+0
8.51404248E+2	9.80163400E-1	5.16220200E+0
8.51110752E+2	9.80101200E-1	5.16220898E+0
8.51295054E+2	9.80202300E-1	5.16219087E+0
8.52658791E+2	9.80039000E-1	5.16215491E+0
8.52001733E+2	9.79996300E-1	5.16217742E+0
8.50755836E+2	9.80015700E-1	5.16218624E+0
8.49799608E+2	9.80070100E-1	5.16216321E+0
8.49868502E+2	9.80116700E-1	5.16218553E+0
8.50370121E+2	9.80241100E-1	5.16218553E+0
8.51153169E+2	9.80248900E-1	5.16220051E+0
8.51582382E+2	9.80221700E-1	5.16219492E+0
8.50874081E+2	9.80210000E-1	5.16219510E+0
8.50664068E+2	9.80035100E-1	5.16221343E+0
8.50894164E+2	9.80066200E-1	5.16224147E+0
8.51667375E+2	9.80046800E-1	5.16215869E+0
8.51981658E+2	9.80233400E-1	5.16217220E+0
8.52827611E+2	9.80070100E-1	5.16216442E+0
8.53256374E+2	9.80213900E-1	5.16216419E+0
8.52804737E+2	9.80074000E-1	5.16217175E+0
8.51988187E+2	9.80097300E-1	5.16216956E+0
8.52308341E+2	9.80101200E-1	5.16218365E+0
8.52174471E+2	9.80035100E-1	5.16220641E+0
8.51590405E+2	9.80167300E-1	5.16217135E+0
8.50470363E+2	9.80062300E-1	5.16222667E+0
8.50367338E+2	9.80252800E-1	5.16223333E+0
8.51025746E+2	9.80221700E-1	5.16217953E+0
8.50982384E+2	9.80256700E-1	5.16221889E+0
8.51035427E+2	9.80074000E-1	5.16220153E+0
8.51025566E+2	9.80128400E-1	5.16222014E+0
8.51619616E+2	9.80097300E-1	5.16221079E+0
8.51691927E+2	9.80101200E-1	5.16221191E+0
8.51235652E+2	9.80039000E-1	5.16219535E+0
8.50801306E+2	9.80268400E-1	5.16221028E+0
8.50302974E+2	9.80252800E-1	5.16219897E+0
8.50983852E+2	9.80252800E-1	5.16220885E+0
8.51078637E+2	9.80268400E-1	5.16222499E+0
8.51482318E+2	9.80233400E-1	5.16222772E+0
8.50904511E+2	9.80042800E-1	5.16217898E+0
8.50878711E+2	9.80085700E-1	5.16220348E+0
8.51392307E+2	9.80159600E-1	5.16222347E+0
8.51241462E+2	9.80202300E-1	5.16218886E+0
8.50646949E+2	9.80081800E-1	5.16216230E+0
8.51160635E+2	9.80260600E-1	5.16220062E+0
8.51681976E+2	9.80097300E-1	5.16219306E+0
8.51086923E+2	9.80229500E-1	5.16218730E+0
8.50939680E+2	9.80081800E-1	5.16216073E+0
8.50404101E+2	9.80042800E-1	5.16213354E+0
8.50407478E+2	9.80105100E-1	5.16213578E+0
8.50982854E+2	9.80175100E-1	5.16216400E+0
8.51345469E+2	9.80109000E-1	5.16212903E+0
8.50651938E+2	9.80163400E-1	5.16210094E+0
8.50409369E+2	9.80217800E-1	5.16214298E+0
8.50628343E+2	9.80225600E-1	5.16217567E+0
8.51357267E+2	9.80116700E-1	5.16216140E+0
8.51168732E+2	9.80210000E-1	5.16219611E+0
8.50625372E+2	9.80147800E-1	5.16213815E+0
8.50307920E+2	9.80089600E-1	5.16216158E+0
8.50187018E+2	9.80233400E-1	5.16217437E+0
8.50675804E+2	9.80163400E-1	5.16216704E+0
8.51094300E+2	9.80070100E-1	5.16215416E+0
8.51542469E+2	9.80225600E-1	5.16218801E+0
8.51724456E+2	9.80093400E-1	5.16217325E+0
8.51657689E+2	9.80213900E-1	5.16219570E+0
8.51500629E+2	9.80206100E-1	5.16216248E+0
8.51876348E+2	9.80062300E-1	5.16219306E+0
8.52521158E+2	9.80089600E-1	5.16223076E+0
8.52165567E+2	9.80182800E-1	5.16221417E+0
8.52060695E+2	9.80245000E-1	5.16224248E+0
