# Begin of measurement: 19.07.2019 14:21:45
# R-Sample[Ohm]	I-Coil[A]	U-Magnetometer[V]
# Kei2000	HP E3631A +6V : I	Kei2000
7.48405030E+2	-1.79729500E-2	-1.78742224E-1
7.47882383E+2	-1.79885000E-2	-1.78670943E-1
7.47566552E+2	-1.80273700E-2	-1.78697059E-1
7.48206701E+2	-1.80351400E-2	-1.78736455E-1
7.49014639E+2	-1.78952200E-2	-1.78762257E-1
7.49856584E+2	-1.78952200E-2	-1.78766819E-1
7.48840649E+2	-1.64143100E-2	-1.78773929E-1
7.48062060E+2	-1.48712200E-2	-1.71473100E-1
7.48125730E+2	-1.36934900E-2	-1.64116552E-1
7.47218719E+2	-1.21931600E-2	-1.57799741E-1
7.47086831E+2	-1.07977600E-2	-1.50423115E-1
7.47592366E+2	-9.24689800E-3	-1.43132347E-1
7.47907882E+2	-7.65327500E-3	-1.35932760E-1
7.48964973E+2	-6.22678900E-3	-1.28634792E-1
7.48521036E+2	-4.72645100E-3	-1.21346171E-1
7.47447870E+2	-3.40879800E-3	-1.14019540E-1
7.48155695E+2	-1.71022900E-3	-1.06677570E-1
7.49506690E+2	-3.69254000E-4	-9.93676954E-2
7.47946315E+2	1.43426000E-3	-9.20941452E-2
7.48417178E+2	2.49926700E-3	-8.38494557E-2
7.48314828E+2	4.19006200E-3	-7.78689244E-2
7.48536369E+2	5.65930400E-3	-7.06215341E-2
7.48168936E+2	6.94586300E-3	-6.32775084E-2
7.47605674E+2	8.45786000E-3	-5.59349584E-2
7.46546647E+2	9.80660900E-3	-4.95800486E-2
7.46332671E+2	1.13574800E-2	-4.21839265E-2
7.47866254E+2	1.28228300E-2	-3.49079168E-2
7.47442895E+2	1.42493200E-2	-2.75796767E-2
7.47051462E+2	1.59051300E-2	-2.03014322E-2
7.46568785E+2	1.72694300E-2	-1.29692562E-2
7.46229588E+2	1.87270100E-2	-5.72115002E-3
7.47408751E+2	2.03595000E-2	1.57821057E-3
7.47406274E+2	2.17160200E-2	8.90921436E-3
7.48166401E+2	2.32163600E-2	1.61716652E-2
7.49326563E+2	2.47788900E-2	2.34200299E-2
7.49510592E+2	2.60499000E-2	3.07519727E-2
7.49227702E+2	2.74025300E-2	3.68814446E-2
7.49357384E+2	2.90933300E-2	4.41834710E-2
7.47918631E+2	3.05003800E-2	5.14634067E-2
7.47723927E+2	3.19074300E-2	5.87922640E-2
7.47035665E+2	3.35010600E-2	6.61112386E-2
7.47057549E+2	3.48731300E-2	7.34520357E-2
7.47774539E+2	3.64745200E-2	8.07058559E-2
7.49655023E+2	3.80098400E-2	8.80551942E-2
7.48705145E+2	3.93391600E-2	9.52939891E-2
7.50216304E+2	4.06412600E-2	1.02570616E-1
7.50459504E+2	4.22698700E-2	1.08972958E-1
7.49042544E+2	4.35875200E-2	1.16336293E-1
7.48679781E+2	4.52705400E-2	1.23572494E-1
7.47865876E+2	4.65882000E-2	1.30905114E-1
7.46637450E+2	4.80380000E-2	1.38191849E-1
7.46377771E+2	4.96977000E-2	1.45545392E-1
7.48046621E+2	5.11941600E-2	1.52821258E-1
7.48321655E+2	5.25545600E-2	1.60245142E-1
7.47961787E+2	5.40432400E-2	1.67447403E-1
7.48358309E+2	5.55319100E-2	1.74797055E-1
7.49114924E+2	5.68418000E-2	1.82057807E-1
7.47950304E+2	5.83654500E-2	1.88454425E-1
7.47533204E+2	5.99046600E-2	1.95746927E-1
7.47595749E+2	6.12961700E-2	2.03090408E-1
7.47042168E+2	6.28159300E-2	2.10299957E-1
7.47441212E+2	6.42657500E-2	2.17597244E-1
7.47947386E+2	6.57272100E-2	2.24925431E-1
7.46891285E+2	6.73946900E-2	2.32262741E-1
7.46795869E+2	6.88717100E-2	2.39554840E-1
7.46800282E+2	7.03215100E-2	2.46858380E-1
7.46746923E+2	7.18646000E-2	2.54158833E-1
7.46736078E+2	7.31161800E-2	2.61457193E-1
7.47400231E+2	7.46126400E-2	2.68508663E-1
7.47717953E+2	7.60080200E-2	2.74915209E-1
7.47319134E+2	7.76366300E-2	2.82195547E-1
7.47142307E+2	7.89154100E-2	2.89557093E-1
7.47243081E+2	8.03613400E-2	2.96825178E-1
7.47503076E+2	8.20676700E-2	3.04154438E-1
7.47247268E+2	8.34008800E-2	3.11462770E-1
7.47052249E+2	8.51111000E-2	3.18722895E-1
7.47563459E+2	8.65686900E-2	3.26089782E-1
7.48954529E+2	8.80107200E-2	3.33418955E-1
7.48185755E+2	8.94838500E-2	3.40597470E-1
7.48223354E+2	9.08870100E-2	3.47888631E-1
7.48117537E+2	9.24651000E-2	3.55141870E-1
7.49364199E+2	9.39460000E-2	3.62487810E-1
7.49496583E+2	9.52714300E-2	3.69805757E-1
7.47837639E+2	9.66629300E-2	3.76175902E-1
7.47584668E+2	9.80894200E-2	3.83477929E-1
7.48160719E+2	9.95897600E-2	3.90701923E-1
7.48140141E+2	1.01097900E-1	3.98038517E-1
7.47900409E+2	1.02641000E-1	4.05348682E-1
7.48190708E+2	1.04207400E-1	4.12572050E-1
7.49949391E+2	1.05513400E-1	4.19915441E-1
7.49045171E+2	1.07180800E-1	4.27220330E-1
7.48615553E+2	1.08533500E-1	4.34472273E-1
7.47430535E+2	1.10037700E-1	4.41807324E-1
7.46465694E+2	1.11611900E-1	4.49033323E-1
7.48388030E+2	1.13108300E-1	4.56348944E-1
7.48333771E+2	1.14593100E-1	4.63680887E-1
7.50985326E+2	1.15988500E-1	4.70993422E-1
7.51091369E+2	1.17648200E-1	4.78236913E-1
7.49733260E+2	1.18818200E-1	4.85547391E-1
7.48960562E+2	1.20400100E-1	4.91931532E-1
7.48522747E+2	1.21748900E-1	4.99236823E-1
7.48352313E+2	1.23350300E-1	5.06286997E-1
7.48330925E+2	1.24811700E-1	5.13572836E-1
7.48161572E+2	1.26137200E-1	5.20873330E-1
7.48250099E+2	1.27649200E-1	5.28148169E-1
7.49080651E+2	1.29266100E-1	5.35451716E-1
7.48107988E+2	1.30789800E-1	5.42767695E-1
7.46904779E+2	1.32165700E-1	5.50111936E-1
7.46855608E+2	1.33720500E-1	5.57389770E-1
7.50006034E+2	1.35228600E-1	5.64618012E-1
7.50840684E+2	1.36589000E-1	5.71909172E-1
7.48937145E+2	1.38217600E-1	5.79207085E-1
7.48800908E+2	1.39570200E-1	5.86514031E-1
7.49254314E+2	1.41039500E-1	5.93809887E-1
7.48653632E+2	1.42528200E-1	6.01139058E-1
7.48652867E+2	1.43841900E-1	6.08408262E-1
7.49863056E+2	1.45346200E-1	6.14765439E-1
7.48278319E+2	1.46998100E-1	6.22029992E-1
7.48360721E+2	1.48331300E-1	6.29371549E-1
7.49097177E+2	1.49936600E-1	6.36598808E-1
7.48787200E+2	1.51394100E-1	6.43936520E-1
7.47962861E+2	1.52750700E-1	6.51230676E-1
7.47301211E+2	1.54414200E-1	6.58545313E-1
7.48069354E+2	1.55895200E-1	6.65806110E-1
7.48605644E+2	1.57251700E-1	6.73139955E-1
7.49052643E+2	1.58724800E-1	6.80340628E-1
7.48366362E+2	1.60213500E-1	6.87610502E-1
7.47339620E+2	1.61744900E-1	6.94924513E-1
7.47520815E+2	1.63202500E-1	7.02211425E-1
7.47467186E+2	1.64854400E-1	7.09503032E-1
7.47811205E+2	1.66183700E-1	7.16797771E-1
7.48004738E+2	1.67672400E-1	7.24050697E-1
7.48967089E+2	1.68927900E-1	7.31393462E-1
7.49387431E+2	1.70572000E-1	7.37471017E-1
7.50315606E+2	1.72033500E-1	7.44792317E-1
7.48678501E+2	1.73425000E-1	7.52101456E-1
7.47961780E+2	1.75084700E-1	7.59311894E-1
7.47495734E+2	1.76561700E-1	7.66566967E-1
7.47644689E+2	1.78019300E-1	7.73918586E-1
7.48615956E+2	1.79492400E-1	7.81200578E-1
7.48790442E+2	1.80802300E-1	7.88528889E-1
7.48853977E+2	1.82469800E-1	7.95781461E-1
7.48803275E+2	1.83989600E-1	8.03048428E-1
7.48687957E+2	1.85466600E-1	8.10364003E-1
7.47368392E+2	1.86959100E-1	8.17657264E-1
7.47394772E+2	1.88436200E-1	8.24936529E-1
7.47569978E+2	1.89753800E-1	8.32156318E-1
7.47540304E+2	1.91273600E-1	8.39489468E-1
7.47062911E+2	1.92669000E-1	8.46744808E-1
7.46806158E+2	1.94025500E-1	8.53897207E-1
7.46539688E+2	1.95564700E-1	8.60258095E-1
7.46410028E+2	1.97006700E-1	8.67535481E-1
7.48346033E+2	1.98534300E-1	8.74800492E-1
7.48693834E+2	2.00007400E-1	8.82116471E-1
7.48642411E+2	2.01496100E-1	8.89384735E-1
7.48280291E+2	2.03066400E-1	8.96721373E-1
7.49481834E+2	2.04457900E-1	9.03975238E-1
7.48707054E+2	2.06140900E-1	9.11138146E-1
7.48141360E+2	2.07478000E-1	9.18477110E-1
7.47763661E+2	2.08943300E-1	9.25728694E-1
7.48256363E+2	2.10424300E-1	9.33026204E-1
7.48025277E+2	2.12080100E-1	9.40304038E-1
7.48251950E+2	2.13514300E-1	9.47617675E-1
7.48248930E+2	2.14999100E-1	9.54893317E-1
7.47326125E+2	2.16149600E-1	9.62172671E-1
7.46915554E+2	2.17626600E-1	9.68245172E-1
7.48633889E+2	2.19278600E-1	9.75586908E-1
7.50695882E+2	2.20642900E-1	9.82880616E-1
7.48916263E+2	2.22053800E-1	9.90130366E-1
7.48004766E+2	2.23596900E-1	9.97436014E-1
7.47746589E+2	2.25073900E-1	1.00470267E+0
7.47641762E+2	2.26593700E-1	1.01204065E+0
7.46557339E+2	2.28191200E-1	1.01926170E+0
7.47719256E+2	2.29536100E-1	1.02648190E+0
7.48126900E+2	2.31180200E-1	1.03374507E+0
7.48832542E+2	2.32587300E-1	1.04103940E+0
7.48628730E+2	2.34130400E-1	1.04833436E+0
7.49354231E+2	2.35537400E-1	1.05561993E+0
7.49041597E+2	2.37181600E-1	1.06288603E+0
7.48764176E+2	2.38611900E-1	1.07016172E+0
7.48199158E+2	2.39952900E-1	1.07744009E+0
7.48055202E+2	2.41387200E-1	1.08379632E+0
7.47442881E+2	2.42767000E-1	1.09114043E+0
7.47818519E+2	2.44259600E-1	1.09842506E+0
7.47856343E+2	2.45911500E-1	1.11208972E+0
7.48201847E+2	2.47400200E-1	1.11297621E+0
7.47233823E+2	2.48978300E-1	1.12119277E+0
7.47236975E+2	2.50587400E-1	1.12845124E+0
7.47612474E+2	2.51928400E-1	1.13573931E+0
7.47361241E+2	2.53553100E-1	1.14286613E+0
7.48177834E+2	2.55026200E-1	1.15015358E+0
7.47149426E+2	2.56180600E-1	1.15744103E+0
7.46753445E+2	2.57669300E-1	1.16381935E+0
7.47778655E+2	2.59243500E-1	1.17109227E+0
7.48924092E+2	2.60802100E-1	1.17833373E+0
7.48294431E+2	2.62170300E-1	1.18557816E+0
7.48884486E+2	2.63740700E-1	1.19285479E+0
7.48583245E+2	2.65202100E-1	1.19991556E+0
7.48097386E+2	2.66725800E-1	1.20713455E+0
7.48733910E+2	2.68078400E-1	1.21446745E+0
7.47907185E+2	2.69644800E-1	1.22166413E+0
7.48406642E+2	2.71055800E-1	1.22897604E+0
7.48850985E+2	2.72676600E-1	1.23620665E+0
7.48906235E+2	2.74079800E-1	1.24347975E+0
7.49039519E+2	2.75654000E-1	1.25077516E+0
7.48946580E+2	2.76994900E-1	1.25795215E+0
7.48578066E+2	2.78491400E-1	1.26525963E+0
7.47581494E+2	2.80088900E-1	1.27250384E+0
7.47323197E+2	2.81289900E-1	1.27975127E+0
7.47623357E+2	2.82891300E-1	1.28615821E+0
7.46835402E+2	2.84415000E-1	1.29340493E+0
7.46810862E+2	2.85923100E-1	1.30067642E+0
7.46481433E+2	2.87229100E-1	1.30795863E+0
7.46201355E+2	2.88811100E-1	1.31522636E+0
7.47022456E+2	2.90334700E-1	1.32229089E+0
7.47135513E+2	2.91796200E-1	1.32962462E+0
7.47046447E+2	2.93350900E-1	1.33681623E+0
7.48017759E+2	2.94691900E-1	1.34414733E+0
7.47096203E+2	2.96320500E-1	1.35134270E+0
7.47222103E+2	2.97708100E-1	1.35862590E+0
7.47648937E+2	2.99208500E-1	1.36587337E+0
7.47253618E+2	3.00677700E-1	1.37315577E+0
7.47795402E+2	3.02162500E-1	1.38035637E+0
7.47749383E+2	3.03620100E-1	1.38765339E+0
7.48554899E+2	3.05058200E-1	1.39488244E+0
7.48977447E+2	3.06519700E-1	1.40126010E+0
7.48917379E+2	3.07911200E-1	1.40849992E+0
7.48781772E+2	3.09384300E-1	1.41574006E+0
7.48146643E+2	3.10915800E-1	1.42304553E+0
7.48070230E+2	3.12486100E-1	1.43031996E+0
7.48071356E+2	3.13854200E-1	1.43731299E+0
7.48403442E+2	3.15444000E-1	1.44456900E+0
7.47565955E+2	3.16718900E-1	1.45180203E+0
7.47598173E+2	3.18238600E-1	1.45906671E+0
7.48160570E+2	3.19758400E-1	1.46628418E+0
7.47904042E+2	3.21429800E-1	1.47357735E+0
7.48041379E+2	3.22860100E-1	1.48086400E+0
7.48370629E+2	3.24247800E-1	1.48808348E+0
7.48262110E+2	3.25752000E-1	1.49526839E+0
7.48254715E+2	3.27400000E-1	1.50255101E+0
7.47577553E+2	3.28698300E-1	1.50977827E+0
7.47639917E+2	3.30105300E-1	1.51704855E+0
7.47145503E+2	3.31632900E-1	1.52347338E+0
7.46731240E+2	3.32989400E-1	1.53072819E+0
7.47871454E+2	3.34501400E-1	1.53798433E+0
7.49092855E+2	3.36098900E-1	1.54524848E+0
7.48061205E+2	3.37412700E-1	1.55245240E+0
7.47825480E+2	3.38975200E-1	1.55973932E+0
7.47768789E+2	3.40355000E-1	1.56699444E+0
7.47317242E+2	3.41979700E-1	1.57427044E+0
7.46741687E+2	3.43577300E-1	1.58153759E+0
7.47467953E+2	3.44883200E-1	1.58880554E+0
7.48207244E+2	3.46577900E-1	1.59606920E+0
7.48164831E+2	3.47903300E-1	1.60337141E+0
7.48682570E+2	3.49442600E-1	1.61057533E+0
7.48422080E+2	3.50834100E-1	1.61787172E+0
7.47712069E+2	3.52377200E-1	1.62505498E+0
7.47028220E+2	3.53842500E-1	1.63238496E+0
7.46475535E+2	3.55327300E-1	1.63873320E+0
7.47500312E+2	3.56645000E-1	1.64603139E+0
7.48368103E+2	3.58168600E-1	1.65326517E+0
7.47928264E+2	3.59571800E-1	1.66053653E+0
7.46859150E+2	3.61204300E-1	1.66754426E+0
7.46405307E+2	3.62696800E-1	1.67488368E+0
7.47798987E+2	3.64076700E-1	1.68216111E+0
7.47735155E+2	3.65685800E-1	1.68936310E+0
7.47450619E+2	3.67194000E-1	1.69670815E+0
7.47348224E+2	3.68651500E-1	1.70400401E+0
7.47490064E+2	3.70140200E-1	1.71128529E+0
7.46781809E+2	3.71500600E-1	1.71856366E+0
7.46359125E+2	3.73001000E-1	1.72577719E+0
7.47301976E+2	3.74614000E-1	1.73306357E+0
7.47630232E+2	3.76025000E-1	1.74032119E+0
7.48172421E+2	3.77237700E-1	1.74758803E+0
7.47126677E+2	3.78862400E-1	1.75401997E+0
7.47184178E+2	3.80393800E-1	1.76136184E+0
7.47550261E+2	3.81878600E-1	1.76870077E+0
7.49521793E+2	3.83305100E-1	1.77597064E+0
7.49441214E+2	3.84824900E-1	1.78278976E+0
7.49736557E+2	3.86266900E-1	1.79006858E+0
7.48811939E+2	3.87646800E-1	1.80376977E+0
7.48391372E+2	3.89283100E-1	1.80479351E+0
7.49076528E+2	3.90966200E-1	1.81211396E+0
7.48039924E+2	3.92322700E-1	1.82041714E+0
7.47651586E+2	3.93597600E-1	1.82782372E+0
7.47732536E+2	3.95078500E-1	1.83433649E+0
7.47206872E+2	3.96555500E-1	1.84165193E+0
7.47016896E+2	3.98226900E-1	1.84915546E+0
7.47313184E+2	3.99575600E-1	1.85654607E+0
7.48462090E+2	4.01122600E-1	1.86396826E+0
7.48791307E+2	4.02700700E-1	1.87130924E+0
7.48326624E+2	4.04134900E-1	1.87864440E+0
7.48164206E+2	4.05472000E-1	1.88612101E+0
7.48473823E+2	4.07096700E-1	1.89363911E+0
7.48765788E+2	4.08449400E-1	1.90079661E+0
7.49096118E+2	4.09930300E-1	1.90826727E+0
7.48168123E+2	4.11461700E-1	1.91581695E+0
7.47903386E+2	4.13059200E-1	1.92372070E+0
7.48358490E+2	4.14512900E-1	1.93169592E+0
7.47144699E+2	4.15877200E-1	1.93970610E+0
7.47214539E+2	4.17358100E-1	1.94880003E+0
7.48762441E+2	4.18668000E-1	1.95707799E+0
7.49891307E+2	4.20172200E-1	1.96318855E+0
7.49509433E+2	4.21761900E-1	1.97080007E+0
7.49070137E+2	4.23227300E-1	1.97973270E+0
7.48698381E+2	4.24750900E-1	1.98931839E+0
7.49442929E+2	4.26068600E-1	1.99990694E+0
7.48834458E+2	4.27681600E-1	2.00901607E+0
7.48790645E+2	4.29252000E-1	2.02014687E+0
7.48567639E+2	4.30596800E-1	2.03201073E+0
7.48764628E+2	4.32097100E-1	2.04590180E+0
7.48062362E+2	4.33566400E-1	2.06319176E+0
7.47336322E+2	4.35179400E-1	2.09109102E+0
7.48259362E+2	4.36730300E-1	2.11511790E+0
7.47545885E+2	4.38156800E-1	2.13253191E+0
7.46872707E+2	4.39587200E-1	2.16506562E+0
7.48518232E+2	4.41064200E-1	2.19321284E+0
7.47066195E+2	4.42444000E-1	2.21252858E+0
7.47819163E+2	4.43816100E-1	2.24105479E+0
7.49046822E+2	4.45312500E-1	2.25915097E+0
7.49669477E+2	4.46921700E-1	2.26780698E+0
7.47972845E+2	4.48453100E-1	2.28950063E+0
7.48240644E+2	4.49903000E-1	2.32827950E+0
7.48717374E+2	4.51302200E-1	2.34756412E+0
7.48944138E+2	4.52767600E-1	2.36166071E+0
7.49222685E+2	4.54170800E-1	2.37251967E+0
7.47991334E+2	4.55678900E-1	2.38216685E+0
7.48186172E+2	4.57338600E-1	2.39077529E+0
7.48063830E+2	4.58873900E-1	2.39877121E+0
7.47718416E+2	4.60354800E-1	2.40676932E+0
7.47862417E+2	4.61649100E-1	2.41474851E+0
7.47523577E+2	4.63172800E-1	2.42278978E+0
7.48298924E+2	4.64704200E-1	2.43081825E+0
7.49136005E+2	4.65983000E-1	2.43891027E+0
7.49062923E+2	4.67592200E-1	2.44584396E+0
7.48409424E+2	4.68975900E-1	2.45384824E+0
7.48301671E+2	4.70589000E-1	2.46183311E+0
7.48434325E+2	4.71929900E-1	2.46991480E+0
7.47693830E+2	4.73597400E-1	2.47796085E+0
7.47524072E+2	4.75039400E-1	2.48596652E+0
7.47404612E+2	4.76384300E-1	2.49394258E+0
7.47339932E+2	4.78009000E-1	2.50196310E+0
7.47186714E+2	4.79497700E-1	2.50982088E+0
7.46404612E+2	4.80897000E-1	2.51783536E+0
7.46925233E+2	4.82424500E-1	2.52584612E+0
7.46979042E+2	4.83808300E-1	2.53389401E+0
7.46739985E+2	4.85378600E-1	2.54191542E+0
7.47280103E+2	4.86867200E-1	2.54991268E+0
7.48096246E+2	4.88332600E-1	2.55788422E+0
7.47248178E+2	4.89634700E-1	2.56591668E+0
7.47957963E+2	4.91135000E-1	2.57294521E+0
7.47999840E+2	4.92592600E-1	2.58088385E+0
7.48547568E+2	4.94275600E-1	2.58882937E+0
7.48488265E+2	4.95550500E-1	2.59686431E+0
7.48674053E+2	4.97120900E-1	2.60498377E+0
7.47222331E+2	4.98535700E-1	2.61292714E+0
7.47798967E+2	5.00226400E-1	2.62092977E+0
7.48640191E+2	5.01719000E-1	2.62899406E+0
7.49564853E+2	5.03157200E-1	2.63692528E+0
7.49462548E+2	5.04626400E-1	2.64464247E+0
7.49239477E+2	5.05948000E-1	2.65260015E+0
7.47927135E+2	5.07533800E-1	2.66058355E+0
7.48174747E+2	5.09080800E-1	2.66862535E+0
7.47935105E+2	5.10569500E-1	2.67662136E+0
7.47406244E+2	5.11941600E-1	2.68461111E+0
7.48984226E+2	5.13267000E-1	2.69261494E+0
7.48755570E+2	5.14860600E-1	2.69956025E+0
7.47671302E+2	5.16361000E-1	2.70751476E+0
7.47189669E+2	5.17744700E-1	2.71550196E+0
7.48552910E+2	5.19357700E-1	2.72346765E+0
7.48312457E+2	5.20834700E-1	2.73145386E+0
7.47806066E+2	5.22202900E-1	2.73943073E+0
7.47077999E+2	5.23788700E-1	2.74749158E+0
7.46677164E+2	5.25207500E-1	2.75548254E+0
7.48280474E+2	5.26618400E-1	2.76341773E+0
7.46909083E+2	5.28254800E-1	2.77141159E+0
7.46792595E+2	5.29720100E-1	2.77937071E+0
7.46236762E+2	5.31127200E-1	2.78736381E+0
7.46698575E+2	5.32825800E-1	2.79538902E+0
7.46485545E+2	5.34193900E-1	2.80339482E+0
7.45329116E+2	5.35573800E-1	2.81134101E+0
7.45617524E+2	5.36953600E-1	2.81935053E+0
7.46819561E+2	5.38387900E-1	2.82637593E+0
7.47311228E+2	5.39880500E-1	2.83425710E+0
7.47325007E+2	5.41489600E-1	2.84226728E+0
7.46507423E+2	5.42908300E-1	2.85021276E+0
7.47355165E+2	5.44369800E-1	2.85818534E+0
7.47103493E+2	5.45955700E-1	2.86615532E+0
7.46685763E+2	5.47405500E-1	2.87414547E+0
7.46513259E+2	5.48929100E-1	2.88217072E+0
7.47941384E+2	5.50402200E-1	2.89014115E+0
7.47360201E+2	5.51797600E-1	2.89780897E+0
7.46657180E+2	5.53274600E-1	2.90579827E+0
7.47321554E+2	5.54716700E-1	2.91379348E+0
7.46658328E+2	5.56329700E-1	2.92173126E+0
7.46549089E+2	5.57795100E-1	2.92974905E+0
7.46346640E+2	5.59217700E-1	2.93768370E+0
7.46608526E+2	5.60807500E-1	2.94567161E+0
7.47368158E+2	5.62020100E-1	2.95362053E+0
7.48856236E+2	5.63539900E-1	2.96048369E+0
7.49339663E+2	5.64954800E-1	2.96852039E+0
7.48612992E+2	5.66525000E-1	2.97650911E+0
7.49059405E+2	5.67897100E-1	2.98451633E+0
7.48791080E+2	5.69514000E-1	2.99248774E+0
7.47281497E+2	5.70905600E-1	3.00047369E+0
7.46673575E+2	5.72654700E-1	3.00842860E+0
7.46282934E+2	5.73968400E-1	3.01641750E+0
7.45862907E+2	5.75620400E-1	3.02419957E+0
7.46757174E+2	5.76918600E-1	3.03217769E+0
7.47747848E+2	5.78380100E-1	3.04015680E+0
7.48123431E+2	5.80008600E-1	3.04808810E+0
7.47400477E+2	5.81516700E-1	3.05609198E+0
7.47791430E+2	5.82877200E-1	3.06403450E+0
7.48067275E+2	5.84214300E-1	3.07200417E+0
7.47126538E+2	5.85734000E-1	3.07901709E+0
7.46865508E+2	5.87156700E-1	3.08690640E+0
7.47295350E+2	5.88637500E-1	3.09487245E+0
7.46603625E+2	5.90130100E-1	3.10286135E+0
7.47773676E+2	5.91669300E-1	3.11078724E+0
7.47580548E+2	5.93134600E-1	3.11876053E+0
7.46900122E+2	5.94771100E-1	3.12677621E+0
7.46485949E+2	5.96255800E-1	3.13465224E+0
7.46160348E+2	5.97561800E-1	3.14268894E+0
7.47300201E+2	5.99143800E-1	3.15028606E+0
7.48180914E+2	6.00644100E-1	3.15829177E+0
7.48833243E+2	6.02027800E-1	3.16622150E+0
7.49007278E+2	6.03547600E-1	3.17420517E+0
7.48931225E+2	6.05020800E-1	3.18218230E+0
7.48982107E+2	6.06435600E-1	3.19014839E+0
7.48560415E+2	6.07823200E-1	3.19704348E+0
7.48821121E+2	6.09323500E-1	3.20502223E+0
7.48750133E+2	6.10792800E-1	3.21288636E+0
7.47726679E+2	6.12246500E-1	3.22083854E+0
7.46640725E+2	6.13937300E-1	3.22875491E+0
7.46551344E+2	6.15278200E-1	3.23673307E+0
7.47003655E+2	6.16887400E-1	3.24467465E+0
7.46639194E+2	6.18232300E-1	3.25266431E+0
7.46211991E+2	6.19775300E-1	3.26053909E+0
7.48134936E+2	6.21295200E-1	3.26848662E+0
7.48609267E+2	6.22842100E-1	3.27649085E+0
7.48344949E+2	6.24214200E-1	3.28436192E+0
7.49010967E+2	6.25722300E-1	3.29229473E+0
7.48223822E+2	6.27218700E-1	3.30029687E+0
7.48324859E+2	6.28524700E-1	3.30822718E+0
7.49280042E+2	6.30083400E-1	3.31516028E+0
7.49111995E+2	6.31556500E-1	3.32311855E+0
7.48674137E+2	6.33119100E-1	3.33104891E+0
7.48489070E+2	6.34607700E-1	3.33891769E+0
7.48217187E+2	6.36115800E-1	3.34689349E+0
7.48266088E+2	6.37484000E-1	3.35479585E+0
7.48821452E+2	6.38953300E-1	3.36276740E+0
7.48952305E+2	6.40480800E-1	3.37067298E+0
7.48827846E+2	6.41891700E-1	3.37860996E+0
7.48947802E+2	6.43551400E-1	3.38649972E+0
7.49218694E+2	6.44873000E-1	3.39451258E+0
7.48905926E+2	6.46404400E-1	3.40208419E+0
7.48028951E+2	6.47799800E-1	3.40976455E+0
7.48399712E+2	6.49475000E-1	3.41799157E+0
7.47658631E+2	6.50959900E-1	3.42567889E+0
7.47257112E+2	6.52285300E-1	3.43384465E+0
7.48548261E+2	6.54030500E-1	3.44251831E+0
7.48845764E+2	6.55577500E-1	3.45066922E+0
7.47576804E+2	6.57066100E-1	3.45816676E+0
7.47261413E+2	6.58589800E-1	3.46642973E+0
7.48028159E+2	6.60113500E-1	3.47430191E+0
7.47983221E+2	6.61734300E-1	3.48304950E+0
7.48105608E+2	6.63149100E-1	3.49137387E+0
7.48100295E+2	6.64490100E-1	3.49895856E+0
7.47864661E+2	6.66231400E-1	3.50692425E+0
7.46514795E+2	6.67817300E-1	3.51609585E+0
7.47436304E+2	6.69197100E-1	3.52406158E+0
7.47647443E+2	6.70701300E-1	3.53187956E+0
7.47077742E+2	6.72349400E-1	3.53978676E+0
7.46620702E+2	6.73943000E-1	3.54766418E+0
7.48388208E+2	6.75357800E-1	3.55659716E+0
7.46899360E+2	6.76862000E-1	3.56449363E+0
7.48187627E+2	6.78377900E-1	3.57257370E+0
7.49488277E+2	6.80181500E-1	3.58039146E+0
7.48447982E+2	6.81681800E-1	3.58928581E+0
7.47668898E+2	6.83038300E-1	3.59718545E+0
7.48440057E+2	6.84666900E-1	3.60511841E+0
7.47815341E+2	6.86404400E-1	3.61298532E+0
7.47391172E+2	6.87850200E-1	3.62195448E+0
7.48442859E+2	6.89206800E-1	3.62988650E+0
7.48292328E+2	6.90901500E-1	3.63774276E+0
7.48272155E+2	6.92199700E-1	3.64566396E+0
7.48586680E+2	6.93843800E-1	3.65356874E+0
7.48455332E+2	6.95317000E-1	3.66216366E+0
7.47464163E+2	6.96883400E-1	3.67012054E+0
7.46269285E+2	6.98337100E-1	3.67807867E+0
7.46931160E+2	7.00078400E-1	3.68595054E+0
7.46660313E+2	7.01555400E-1	3.69487082E+0
7.47238075E+2	7.03059600E-1	3.70262128E+0
7.47662771E+2	7.04408400E-1	3.71074295E+0
7.47419250E+2	7.05881500E-1	3.71846358E+0
7.47860305E+2	7.07603400E-1	3.72639291E+0
7.48308249E+2	7.09200900E-1	3.73530041E+0
7.47198295E+2	7.10681800E-1	3.74326069E+0
7.47176051E+2	7.12162700E-1	3.75106195E+0
7.47730848E+2	7.13721300E-1	3.75903587E+0
7.47794833E+2	7.15210000E-1	3.76799175E+0
7.48026145E+2	7.16764800E-1	3.77582297E+0
7.49211747E+2	7.18175700E-1	3.78373334E+0
7.50270188E+2	7.19839300E-1	3.79161420E+0
7.50508929E+2	7.21363000E-1	3.79951724E+0
7.48915594E+2	7.22882700E-1	3.80839835E+0
7.47535694E+2	7.24542400E-1	3.81637594E+0
7.46818029E+2	7.26007800E-1	3.82426158E+0
7.47110309E+2	7.27566400E-1	3.83219610E+0
7.47675688E+2	7.29082300E-1	3.84106496E+0
7.47457750E+2	7.30512700E-1	3.84883107E+0
7.46861482E+2	7.32137400E-1	3.85680928E+0
7.46747424E+2	7.33478400E-1	3.86466016E+0
7.46835995E+2	7.35336300E-1	3.87258175E+0
7.46182136E+2	7.36840500E-1	3.88157699E+0
7.45804436E+2	7.38158200E-1	3.88947573E+0
7.47718375E+2	7.39654700E-1	3.89730807E+0
7.48708057E+2	7.41431000E-1	3.90528564E+0
7.49855298E+2	7.42896300E-1	3.91387685E+0
7.48268177E+2	7.44322800E-1	3.92174845E+0
7.47880436E+2	7.45924200E-1	3.92970108E+0
7.47404754E+2	7.47498400E-1	3.93759379E+0
7.47682355E+2	7.48924900E-1	3.94643578E+0
7.46961538E+2	7.50468000E-1	3.95437562E+0
7.47609612E+2	7.51898300E-1	3.96231121E+0
7.47406308E+2	7.53367600E-1	3.97009897E+0
7.47104977E+2	7.55101200E-1	3.97804078E+0
7.47208993E+2	7.56582000E-1	3.98689169E+0
7.46487320E+2	7.58008500E-1	3.99485124E+0
7.46309277E+2	7.59590500E-1	4.00281094E+0
7.47037029E+2	7.61250200E-1	4.01053953E+0
7.46951835E+2	7.62746600E-1	4.01951227E+0
7.47324356E+2	7.63967100E-1	4.02739456E+0
7.46174237E+2	7.65622900E-1	4.03384650E+0
7.47471734E+2	7.67119400E-1	4.04179582E+0
7.47030184E+2	7.68685800E-1	4.05071383E+0
7.47375778E+2	7.70112300E-1	4.05855828E+0
7.47371140E+2	7.71624300E-1	4.06646328E+0
7.47890995E+2	7.73295600E-1	4.07437434E+0
7.48516442E+2	7.74924200E-1	4.08228860E+0
7.48403645E+2	7.76416800E-1	4.09758851E+0
7.46929861E+2	7.78150400E-1	4.09900434E+0
7.46900592E+2	7.79269700E-1	4.10785840E+0
7.47727451E+2	7.81057700E-1	4.11480138E+0
7.46691344E+2	7.82600800E-1	4.12369028E+0
7.48825337E+2	7.83937900E-1	4.13154623E+0
7.48220154E+2	7.85488800E-1	4.13938916E+0
7.47033156E+2	7.87043600E-1	4.14728013E+0
7.47250509E+2	7.88505000E-1	4.15521621E+0
7.46977437E+2	7.89982000E-1	4.16376109E+0
7.46911200E+2	7.91688400E-1	4.17163757E+0
7.48228870E+2	7.93145900E-1	4.17948278E+0
7.47752918E+2	7.94700700E-1	4.18741618E+0
7.48663981E+2	7.96364300E-1	4.19632905E+0
7.47480991E+2	7.97654800E-1	4.20421393E+0
7.47233503E+2	7.99174500E-1	4.21863951E+0
7.48229490E+2	8.00978000E-1	4.21991872E+0
7.47924827E+2	8.02354000E-1	4.22872112E+0
7.47043888E+2	8.03858200E-1	4.23666217E+0
7.46809289E+2	8.05502300E-1	4.24447537E+0
7.46607696E+2	8.06936600E-1	4.25240287E+0
7.47586122E+2	8.08464100E-1	4.26033578E+0
7.48840707E+2	8.10170600E-1	4.26920830E+0
7.48560765E+2	8.11523200E-1	4.27707655E+0
7.47846522E+2	8.13105100E-1	4.28490974E+0
7.47465445E+2	8.14803700E-1	4.29279297E+0
7.48499526E+2	8.16288500E-1	4.30163084E+0
7.47883265E+2	8.17637300E-1	4.30951362E+0
7.47418390E+2	8.19195800E-1	4.31746635E+0
7.48733584E+2	8.20754400E-1	4.32531982E+0
7.48032850E+2	8.22309300E-1	4.33315077E+0
7.47398218E+2	8.23798000E-1	4.34210464E+0
7.47024706E+2	8.25317700E-1	4.34989445E+0
7.45972665E+2	8.26860800E-1	4.35775312E+0
7.45888540E+2	8.28450500E-1	4.36562897E+0
7.47428427E+2	8.29966400E-1	4.37447887E+0
7.46812751E+2	8.31501800E-1	4.38233616E+0
7.46457566E+2	8.33075900E-1	4.39019671E+0
7.47400690E+2	8.34755000E-1	4.39804658E+0
7.48748189E+2	8.36138800E-1	4.40695953E+0
7.48262466E+2	8.37588600E-1	4.41450688E+0
7.47489640E+2	8.39003400E-1	4.42237164E+0
7.47247026E+2	8.40655300E-1	4.43018430E+0
7.46853792E+2	8.42256700E-1	4.43809901E+0
7.47286021E+2	8.43702700E-1	4.44695931E+0
7.48440014E+2	8.45238000E-1	4.45478239E+0
7.49684604E+2	8.46699400E-1	4.46268815E+0
7.48618237E+2	8.48394200E-1	4.47054191E+0
7.47750401E+2	8.49886700E-1	4.48507272E+0
7.47978741E+2	8.51554200E-1	4.48715056E+0
7.48213025E+2	8.52961300E-1	4.49602921E+0
7.48422723E+2	8.54278900E-1	4.50291156E+0
7.48195132E+2	8.55996900E-1	4.51077175E+0
7.48707377E+2	8.57625500E-1	4.51962129E+0
7.47914109E+2	8.59032500E-1	4.52753028E+0
7.48087469E+2	8.60455100E-1	4.53525221E+0
7.48724758E+2	8.62274200E-1	4.54312076E+0
7.47938424E+2	8.63619000E-1	4.55196503E+0
7.47253822E+2	8.65166000E-1	4.55987388E+0
7.47705594E+2	8.66821900E-1	4.56774221E+0
7.46875537E+2	8.68217300E-1	4.57557043E+0
7.48343379E+2	8.69962500E-1	4.58441237E+0
7.47197987E+2	8.71451200E-1	4.59226260E+0
7.47345500E+2	8.72846500E-1	4.60001891E+0
7.47784588E+2	8.74253600E-1	4.60788710E+0
7.48206373E+2	8.76076500E-1	4.61574281E+0
7.47953357E+2	8.77538000E-1	4.62467463E+0
7.47508880E+2	8.79030500E-1	4.63247732E+0
7.47793911E+2	8.80429800E-1	4.64031784E+0
7.47188817E+2	8.82167200E-1	4.64817079E+0
7.47137941E+2	8.83570500E-1	4.65703547E+0
7.47274757E+2	8.85059200E-1	4.66455948E+0
7.47184565E+2	8.86485600E-1	4.67247637E+0
7.48516240E+2	8.88223100E-1	4.68031251E+0
7.48151779E+2	8.89816700E-1	4.68914452E+0
7.47793576E+2	8.91161500E-1	4.69698629E+0
7.48995830E+2	8.92669600E-1	4.70485776E+0
7.47970056E+2	8.94341000E-1	4.71272627E+0
7.49371481E+2	8.95868600E-1	4.72063517E+0
7.49943434E+2	8.97326100E-1	4.72937510E+0
7.48835866E+2	8.98846000E-1	4.73720923E+0
7.47628019E+2	9.00416200E-1	4.74502274E+0
7.47980773E+2	9.02002000E-1	4.75293628E+0
7.48081012E+2	9.03599500E-1	4.76182450E+0
7.49238923E+2	9.04975500E-1	4.76962491E+0
7.48134191E+2	9.06596300E-1	4.77748573E+0
7.47452053E+2	9.08131700E-1	4.78533904E+0
7.47447370E+2	9.09717500E-1	4.79318613E+0
7.48017522E+2	9.11155600E-1	4.80195670E+0
7.49685892E+2	9.12687100E-1	4.80979078E+0
7.50259917E+2	9.14175800E-1	4.81766216E+0
7.50139691E+2	9.15823800E-1	4.82545492E+0
7.48607953E+2	9.17324200E-1	4.83440306E+0
7.47961342E+2	9.18789500E-1	4.84222654E+0
7.47465893E+2	9.20293700E-1	4.85000915E+0
7.47731115E+2	9.22093300E-1	4.85791080E+0
7.48022855E+2	9.23477100E-1	4.86672139E+0
7.47678837E+2	9.25090100E-1	4.87456536E+0
7.48262948E+2	9.26575000E-1	4.88245220E+0
7.48431760E+2	9.27989800E-1	4.89028973E+0
7.47770065E+2	9.29703800E-1	4.89815167E+0
7.47501212E+2	9.31211900E-1	4.90703305E+0
7.47156158E+2	9.32564600E-1	4.91456577E+0
7.48053623E+2	9.34201000E-1	4.92239033E+0
7.47151655E+2	9.35825700E-1	4.93023438E+0
7.46055210E+2	9.37330000E-1	4.93909398E+0
7.47233607E+2	9.38853500E-1	4.94687565E+0
7.46880358E+2	9.40373300E-1	4.95472006E+0
7.46299445E+2	9.41799800E-1	4.96260678E+0
7.46003427E+2	9.43529500E-1	4.97045834E+0
7.46818174E+2	9.44994800E-1	4.97921500E+0
7.46037108E+2	9.46475800E-1	4.98701604E+0
7.46614600E+2	9.47898400E-1	4.99487601E+0
7.46997748E+2	9.49655200E-1	5.00276156E+0
7.47135355E+2	9.51058400E-1	5.01156692E+0
7.47831722E+2	9.52543200E-1	5.01938249E+0
7.47545610E+2	9.54070800E-1	5.02724344E+0
7.47303492E+2	9.55718800E-1	5.03509398E+0
7.46793228E+2	9.57176400E-1	5.04377050E+0
7.47919875E+2	9.58715500E-1	5.05162837E+0
7.48618136E+2	9.60246900E-1	5.05940973E+0
7.47962070E+2	9.61755100E-1	5.06722436E+0
7.48334276E+2	9.63294300E-1	5.07511004E+0
7.48119129E+2	9.64798500E-1	5.08384882E+0
7.48202342E+2	9.66458200E-1	5.09171635E+0
7.46930240E+2	9.67822600E-1	5.09942718E+0
7.47526238E+2	9.69451100E-1	5.10731806E+0
7.47008905E+2	9.71002000E-1	5.11611537E+0
7.46001030E+2	9.72603400E-1	5.12392968E+0
7.47030203E+2	9.73944400E-1	5.13179945E+0
7.46583250E+2	9.75584600E-1	5.13962977E+0
7.45625942E+2	9.77283300E-1	5.14746369E+0
7.46092844E+2	9.78565900E-1	5.15628314E+0
7.45819520E+2	9.80237300E-1	5.16383331E+0
7.46923486E+2	9.80097300E-1	5.17164874E+0
7.46864138E+2	9.80085700E-1	5.17158833E+0
7.47564197E+2	9.80046800E-1	5.17155121E+0
7.47744177E+2	9.80198400E-1	5.17155675E+0
7.47361324E+2	9.80093400E-1	5.17150866E+0
7.46837089E+2	9.80132300E-1	5.17152431E+0
7.46561064E+2	9.80163400E-1	5.17146242E+0
7.47284448E+2	9.80194500E-1	5.17145866E+0
7.47114915E+2	9.80178900E-1	5.17145410E+0
7.47063402E+2	9.80190600E-1	5.17144417E+0
