# Begin of measurement: 19.07.2019 15:19:53
# R-Sample[Ohm]	I-Coil[A]	U-Magnetometer[V]
# Kei2000	HP E3631A +6V : I	Kei2000
1.10095482E+3	1.82050000E-1	8.02117155E-1
1.10096645E+3	1.82007200E-1	8.02114516E-1
1.10097044E+3	1.81882900E-1	8.02119748E-1
1.10097193E+3	1.82018900E-1	8.02039837E-1
1.10098044E+3	1.81871200E-1	8.02096808E-1
1.10098273E+3	1.81847900E-1	8.02109016E-1
1.10097693E+3	1.82085000E-1	8.02113533E-1
1.10098553E+3	1.81925600E-1	8.02111252E-1
1.10097713E+3	1.82046100E-1	8.02153421E-1
1.10096536E+3	1.81855700E-1	8.02115008E-1
1.10094361E+3	1.81816800E-1	8.02101593E-1
1.10090106E+3	1.81976200E-1	8.02149933E-1
1.10083491E+3	1.81983900E-1	8.02114888E-1
1.10074598E+3	1.81894500E-1	8.02106078E-1
1.10063701E+3	1.81855700E-1	8.02089622E-1
1.10045879E+3	1.81801300E-1	8.02141853E-1
1.10027021E+3	1.81991700E-1	8.02059303E-1
1.10001670E+3	1.82030600E-1	8.02109656E-1
1.09948401E+3	1.81894500E-1	8.02118734E-1
1.09936167E+3	1.81805100E-1	8.02121014E-1
1.09896812E+3	1.82042200E-1	8.02055681E-1
1.09850171E+3	1.82022800E-1	8.02056039E-1
1.09800672E+3	1.82038300E-1	8.02098834E-1
1.09752320E+3	1.81851800E-1	8.02101651E-1
1.09687502E+3	1.81960600E-1	8.02079874E-1
1.09625007E+3	1.81875100E-1	8.02099326E-1
1.09558311E+3	1.82042200E-1	8.02069410E-1
1.09485829E+3	1.81894500E-1	8.02082557E-1
1.09410375E+3	1.82015000E-1	8.02114396E-1
1.09325559E+3	1.81812900E-1	8.02064848E-1
1.09240662E+3	1.81941200E-1	8.02083093E-1
1.09139119E+3	1.82030600E-1	8.02093065E-1
1.09053276E+3	1.81894500E-1	8.02099058E-1
1.08940505E+3	1.81976200E-1	8.02107912E-1
1.08842152E+3	1.81840100E-1	8.02061405E-1
1.08733296E+3	1.81809000E-1	8.02010695E-1
1.08610584E+3	1.81762400E-1	8.02075760E-1
1.08493128E+3	1.81529200E-1	8.01692258E-1
1.08360884E+3	1.81910100E-1	8.00509378E-1
1.08232525E+3	1.81781800E-1	8.01750570E-1
1.08098666E+3	1.81945100E-1	8.02027554E-1
1.07952319E+3	1.81820700E-1	8.02015256E-1
1.07796854E+3	1.81886700E-1	8.01999873E-1
1.07658427E+3	1.81906200E-1	8.02031489E-1
1.07503971E+3	1.82038300E-1	8.02018163E-1
1.07334047E+3	1.81836200E-1	8.02034485E-1
1.07160197E+3	1.81879000E-1	8.01906055E-1
1.07002625E+3	1.82007200E-1	8.02070528E-1
1.06829062E+3	1.81809000E-1	8.02028314E-1
1.06633918E+3	1.81882900E-1	8.02035200E-1
1.06464769E+3	1.81999500E-1	8.02005239E-1
1.06269278E+3	1.81867300E-1	8.02033859E-1
1.06094677E+3	1.81867300E-1	8.02046201E-1
1.05909975E+3	1.81875100E-1	8.01955334E-1
1.05711782E+3	1.81898400E-1	8.02048788E-1
1.05499306E+3	1.82018900E-1	8.02054199E-1
1.05325001E+3	1.81968400E-1	8.01989850E-1
1.05130731E+3	1.81828500E-1	8.01975495E-1
1.04922001E+3	1.81840100E-1	8.01880246E-1
1.04709224E+3	1.81933400E-1	8.01987528E-1
1.04471694E+3	1.81836200E-1	8.01995567E-1
1.04232116E+3	1.82007200E-1	8.01981525E-1
1.04015354E+3	1.81937300E-1	8.01809272E-1
1.03773816E+3	1.81929500E-1	8.02025885E-1
1.03532248E+3	1.81816800E-1	8.02031167E-1
1.03320105E+3	1.81871200E-1	8.02046239E-1
1.03036710E+3	1.82003400E-1	8.02056435E-1
1.02785793E+3	1.81964500E-1	8.02028888E-1
1.02522215E+3	1.81976200E-1	8.02041633E-1
1.02265436E+3	1.81906200E-1	8.02034255E-1
1.02013294E+3	1.81890600E-1	8.02013729E-1
1.01815246E+3	1.81840100E-1	8.01985422E-1
1.01628504E+3	1.81952800E-1	8.02026474E-1
1.01350764E+3	1.81844000E-1	8.01989850E-1
1.01097033E+3	1.81921700E-1	8.02003086E-1
1.00825552E+3	1.81987800E-1	8.01971605E-1
1.00590031E+3	1.81840100E-1	8.01978268E-1
1.00287835E+3	1.81859500E-1	8.02008542E-1
9.99514596E+2	1.81832300E-1	8.01989134E-1
9.97731740E+2	1.81906200E-1	8.02001163E-1
9.95227167E+2	1.81820700E-1	8.01997899E-1
9.92666760E+2	1.81999500E-1	8.02019811E-1
9.89714695E+2	1.81824600E-1	8.02005009E-1
9.87011243E+2	1.81851800E-1	8.02020839E-1
9.84454342E+2	1.81952800E-1	8.02000135E-1
9.80833064E+2	1.81991700E-1	8.01993293E-1
9.77664098E+2	1.81832300E-1	8.02029432E-1
9.74567717E+2	1.82050000E-1	8.02027598E-1
9.71346787E+2	1.81851800E-1	8.02028359E-1
9.69156469E+2	1.81844000E-1	8.02009622E-1
9.63435367E+2	1.81832300E-1	8.02020309E-1
9.62501207E+2	1.81991700E-1	8.02051609E-1
9.59928282E+2	1.81910100E-1	8.02046992E-1
9.57976974E+2	1.81956700E-1	8.02022800E-1
9.54887168E+2	1.81855700E-1	8.02016808E-1
9.52339008E+2	1.81906200E-1	8.02066847E-1
9.48163986E+2	1.81952800E-1	8.02116260E-1
9.46802327E+2	1.81890600E-1	8.02102979E-1
9.42729371E+2	1.82022800E-1	8.02094125E-1
9.39447295E+2	1.82022800E-1	8.02094080E-1
9.35542205E+2	1.81956700E-1	8.02087552E-1
9.31908277E+2	1.81964500E-1	8.02054147E-1
9.28478346E+2	1.81917800E-1	8.02078966E-1
9.25433720E+2	1.81964500E-1	8.02056070E-1
9.22514122E+2	1.82022800E-1	8.02078519E-1
9.19710787E+2	1.81871200E-1	8.02019983E-1
9.15607122E+2	1.81855700E-1	8.02019357E-1
9.12045013E+2	1.81836200E-1	8.02025170E-1
9.09334942E+2	1.81871200E-1	8.02051598E-1
9.06168676E+2	1.81820700E-1	8.02058664E-1
9.03318197E+2	1.81875100E-1	8.02053432E-1
9.01029178E+2	1.81801300E-1	8.02051419E-1
8.98100711E+2	1.81964500E-1	8.02048159E-1
8.94215885E+2	1.82015000E-1	8.02042648E-1
8.90912872E+2	1.81886700E-1	8.02052173E-1
8.87385693E+2	1.82085000E-1	8.02070015E-1
8.84497751E+2	1.81972300E-1	8.02056376E-1
8.81191405E+2	1.81980000E-1	8.02070184E-1
8.78751315E+2	1.81976200E-1	8.02109539E-1
8.75319475E+2	1.81847900E-1	8.02095006E-1
8.72129302E+2	1.81855700E-1	8.02040539E-1
8.68960833E+2	1.81844000E-1	8.02064687E-1
8.65550066E+2	1.81851800E-1	8.02061646E-1
8.63743526E+2	1.81972300E-1	8.02081501E-1
8.61167631E+2	1.81956700E-1	8.02044206E-1
8.57089858E+2	1.81847900E-1	8.02071797E-1
8.54017164E+2	1.81840100E-1	8.02072155E-1
8.52893525E+2	1.81844000E-1	8.02029181E-1
8.49353392E+2	1.81847900E-1	8.02038214E-1
8.45067092E+2	1.81976200E-1	8.02075196E-1
8.42477554E+2	1.81906200E-1	8.02066208E-1
8.37176044E+2	1.82022800E-1	8.02052121E-1
8.34364155E+2	1.82003400E-1	8.02046576E-1
8.30615584E+2	1.81875100E-1	8.02054760E-1
8.27310056E+2	1.81836200E-1	8.02054447E-1
8.23783790E+2	1.82007200E-1	8.02021221E-1
8.21920874E+2	1.81972300E-1	8.02056012E-1
8.19255371E+2	1.82030600E-1	8.02047202E-1
8.15095960E+2	1.81995600E-1	8.01982093E-1
8.11029893E+2	1.82022800E-1	8.02015102E-1
8.07668279E+2	1.81948900E-1	8.02028696E-1
8.04756379E+2	1.82026700E-1	8.02042648E-1
8.01767301E+2	1.82022800E-1	8.01974274E-1
7.98974952E+2	1.81987800E-1	8.01994979E-1
7.96670531E+2	1.81945100E-1	8.02009331E-1
7.93998679E+2	1.81999500E-1	8.02014916E-1
7.90000957E+2	1.81824600E-1	8.02029762E-1
7.86972941E+2	1.82053900E-1	8.02005928E-1
7.83748319E+2	1.81863400E-1	8.01990053E-1
7.80683008E+2	1.81851800E-1	8.02011180E-1
7.77664437E+2	1.81844000E-1	8.02008528E-1
7.75251318E+2	1.82057800E-1	8.02003699E-1
7.73356836E+2	1.81882900E-1	8.02019931E-1
7.70276936E+2	1.81976200E-1	8.02053872E-1
7.69206025E+2	1.81805100E-1	8.02038400E-1
7.66175836E+2	1.81820700E-1	8.02062056E-1
7.61426776E+2	1.81999500E-1	8.02050518E-1
7.57454818E+2	1.81999500E-1	8.02065633E-1
7.55265805E+2	1.82069400E-1	8.02061251E-1
7.50925612E+2	1.81863400E-1	8.02043989E-1
7.48400879E+2	1.81894500E-1	8.02016799E-1
7.46674129E+2	1.81921700E-1	8.02088522E-1
7.43644888E+2	1.81898400E-1	8.02083066E-1
7.41435703E+2	1.82026700E-1	8.02062362E-1
7.37804927E+2	1.82030600E-1	8.02096705E-1
7.34933536E+2	1.81840100E-1	8.02112197E-1
7.32549178E+2	1.81879000E-1	8.02088783E-1
7.30121785E+2	1.81983900E-1	8.02072372E-1
7.27587090E+2	1.81875100E-1	8.02040354E-1
7.24812663E+2	1.81914000E-1	8.02092584E-1
7.20529829E+2	1.81991700E-1	8.02104524E-1
7.17602890E+2	1.81937300E-1	8.02052338E-1
7.14334089E+2	1.81956700E-1	8.02065083E-1
7.12480719E+2	1.82018900E-1	8.02052696E-1
7.10614381E+2	1.81995600E-1	8.02023719E-1
7.07693523E+2	1.81871200E-1	8.02015043E-1
7.04870016E+2	1.81828500E-1	8.02019739E-1
7.02061098E+2	1.81882900E-1	8.02012450E-1
6.99917250E+2	1.81820700E-1	8.02040890E-1
6.97005847E+2	1.81991700E-1	8.02038163E-1
6.93986557E+2	1.81875100E-1	8.02040712E-1
6.90830560E+2	1.81840100E-1	8.02063518E-1
6.87420738E+2	1.81976200E-1	8.02080555E-1
6.85371674E+2	1.81847900E-1	8.02054753E-1
6.83534011E+2	1.81812900E-1	8.02012450E-1
6.80184967E+2	1.81882900E-1	8.02028638E-1
6.78708349E+2	1.81789600E-1	8.02044557E-1
6.76647398E+2	1.81991700E-1	8.02054440E-1
6.74607655E+2	1.81995600E-1	8.01998185E-1
6.72594929E+2	1.81999500E-1	8.02009007E-1
6.69055513E+2	1.81820700E-1	8.02018129E-1
6.65800588E+2	1.81820700E-1	8.02015983E-1
6.61870416E+2	1.81859500E-1	8.02073579E-1
6.59191990E+2	1.81987800E-1	8.02087039E-1
6.56865866E+2	1.81844000E-1	8.02051712E-1
6.53038809E+2	1.81840100E-1	8.02086637E-1
6.50191571E+2	1.81859500E-1	8.02089857E-1
6.47794877E+2	1.81948900E-1	8.02129074E-1
6.45142613E+2	1.81828500E-1	8.02138510E-1
6.43590889E+2	1.81906200E-1	8.02152775E-1
6.41901333E+2	1.81991700E-1	8.02150852E-1
6.39886041E+2	1.81809000E-1	8.02161495E-1
6.37653532E+2	1.81890600E-1	8.02223042E-1
6.34113726E+2	1.82038300E-1	8.02203939E-1
6.32156558E+2	1.82018900E-1	8.02273475E-1
6.29784416E+2	1.81910100E-1	8.02284565E-1
6.26747114E+2	1.81832300E-1	8.02302363E-1
6.24982225E+2	1.81805100E-1	8.02338227E-1
6.23801671E+2	1.81851800E-1	8.02390867E-1
6.21429115E+2	1.82030600E-1	8.02438223E-1
6.18951994E+2	1.81968400E-1	8.02507938E-1
6.15638488E+2	1.81828500E-1	8.02610879E-1
6.13924977E+2	1.81785700E-1	8.02777319E-1
6.12736227E+2	1.81859500E-1	8.02881646E-1
6.09585814E+2	1.82015000E-1	8.03041737E-1
6.07208719E+2	1.82038300E-1	8.03559392E-1
6.06362050E+2	1.81991700E-1	8.04153381E-1
6.05457474E+2	1.81890600E-1	8.04789002E-1
6.02597540E+2	1.81925600E-1	8.07452135E-1
5.98914441E+2	1.82038300E-1	8.30356900E-1
5.96684454E+2	1.81863400E-1	8.98747885E-1
5.94355539E+2	1.81820700E-1	9.09777168E-1
5.92850749E+2	1.81840100E-1	9.09798320E-1
5.91326890E+2	1.81828500E-1	9.09784949E-1
5.89744502E+2	1.81886700E-1	9.09803060E-1
5.87423017E+2	1.81983900E-1	9.09786022E-1
5.84877201E+2	1.81999500E-1	9.09802389E-1
5.83018519E+2	1.81847900E-1	9.09849477E-1
5.81046426E+2	1.81828500E-1	9.09815044E-1
5.79457216E+2	1.81797400E-1	9.09789197E-1
5.77227317E+2	1.81867300E-1	9.09861774E-1
5.75012864E+2	1.81987800E-1	9.09838119E-1
5.72821509E+2	1.81824600E-1	9.09852160E-1
5.70328419E+2	1.81836200E-1	9.09865039E-1
5.67861401E+2	1.81933400E-1	9.09835257E-1
5.65452481E+2	1.81844000E-1	9.09854038E-1
5.63684439E+2	1.81867300E-1	9.09836106E-1
5.62743660E+2	1.81875100E-1	9.09855022E-1
5.59268860E+2	1.81987800E-1	9.09916554E-1
5.57685749E+2	1.81886700E-1	9.09901171E-1
5.56603356E+2	1.81956700E-1	9.09870584E-1
5.54506471E+2	1.81956700E-1	9.09857079E-1
5.51977853E+2	1.81816800E-1	9.09877292E-1
5.49882500E+2	1.81824600E-1	9.09909131E-1
5.47769315E+2	1.81789600E-1	9.09862311E-1
5.45921527E+2	1.81925600E-1	9.09871076E-1
5.43467207E+2	1.81816800E-1	9.09875458E-1
5.41793574E+2	1.81832300E-1	9.09820813E-1
5.40150482E+2	1.81836200E-1	9.09839147E-1
5.38620956E+2	1.81840100E-1	9.09836598E-1
5.37402667E+2	1.81902300E-1	9.09833068E-1
5.35124634E+2	1.81898400E-1	9.09852666E-1
5.33595964E+2	1.82015000E-1	9.09819440E-1
5.31658390E+2	1.81859500E-1	9.09838535E-1
5.29761597E+2	1.81863400E-1	9.09812554E-1
5.28341851E+2	1.81960600E-1	9.09824002E-1
5.25816253E+2	1.81867300E-1	9.09813359E-1
5.24400740E+2	1.81987800E-1	9.09818233E-1
5.22713660E+2	1.81972300E-1	9.09807501E-1
5.21375506E+2	1.81972300E-1	9.09786081E-1
5.19298346E+2	1.81948900E-1	9.09819306E-1
5.16778691E+2	1.81863400E-1	9.09799138E-1
5.14618769E+2	1.81914000E-1	9.09796813E-1
5.13063713E+2	1.82050000E-1	9.09782235E-1
5.12020675E+2	1.82026700E-1	9.09781877E-1
5.10860338E+2	1.81983900E-1	9.09790687E-1
5.10486657E+2	1.81847900E-1	9.09804147E-1
5.08726895E+2	1.81789600E-1	9.09780491E-1
5.06658021E+2	1.82042200E-1	9.09788674E-1
5.04565326E+2	1.81871200E-1	9.09788674E-1
5.02388249E+2	1.81770100E-1	9.09813448E-1
5.01027626E+2	1.81925600E-1	9.09788406E-1
4.99593472E+2	1.81960600E-1	9.09788808E-1
4.97968212E+2	1.81948900E-1	9.09691323E-1
4.96805804E+2	1.82007200E-1	9.09749949E-1
4.95480033E+2	1.81832300E-1	9.09742033E-1
4.95100848E+2	1.81770100E-1	9.09741631E-1
4.95077209E+2	1.81812900E-1	9.09741318E-1
4.93762469E+2	1.81933400E-1	9.09741899E-1
4.93407573E+2	1.82018900E-1	9.09717260E-1
4.92576398E+2	1.81875100E-1	9.09731614E-1
4.93182120E+2	1.81859500E-1	9.09758132E-1
4.92577074E+2	1.81820700E-1	9.09749144E-1
4.92162677E+2	1.81925600E-1	9.09795382E-1
4.91908177E+2	1.81789600E-1	9.09760010E-1
4.91534163E+2	1.81847900E-1	9.09788585E-1
4.92042971E+2	1.81879000E-1	9.09765466E-1
4.91846737E+2	1.81824600E-1	9.09789032E-1
4.92500324E+2	1.81828500E-1	9.09796902E-1
4.91652935E+2	1.81976200E-1	9.09818367E-1
4.91153030E+2	1.82011100E-1	9.09821274E-1
4.91481017E+2	1.81894500E-1	9.09808619E-1
4.91910137E+2	1.81875100E-1	9.09808484E-1
4.91380378E+2	1.82007200E-1	9.09794264E-1
4.91838272E+2	1.81972300E-1	9.09808440E-1
4.91928148E+2	1.81902300E-1	9.09795963E-1
4.91615066E+2	1.81859500E-1	9.09854454E-1
4.91420634E+2	1.81956700E-1	9.09845645E-1
4.91467926E+2	1.81976200E-1	9.09804370E-1
4.92061941E+2	1.81910100E-1	9.09818054E-1
4.92676669E+2	1.81816800E-1	9.09839921E-1
4.91465855E+2	1.81945100E-1	9.09825477E-1
4.91499986E+2	1.81828500E-1	9.09809468E-1
4.91368368E+2	1.81828500E-1	9.09800151E-1
4.91732114E+2	1.81995600E-1	9.09815161E-1
4.91760396E+2	1.81914000E-1	9.09835552E-1
4.91558849E+2	1.81836200E-1	9.09817307E-1
4.91538316E+2	1.81859500E-1	9.09817710E-1
4.90931603E+2	1.81914000E-1	9.09826475E-1
4.91655480E+2	1.82015000E-1	9.09844957E-1
4.91406921E+2	1.82007200E-1	9.09816114E-1
4.90884572E+2	1.81956700E-1	9.09847327E-1
4.90406461E+2	1.81991700E-1	9.09813431E-1
4.91371149E+2	1.81844000E-1	9.09822285E-1
4.91062930E+2	1.81882900E-1	9.09811955E-1
4.91551848E+2	1.81812900E-1	9.09755074E-1
4.91814139E+2	1.81952800E-1	9.09773498E-1
4.91535952E+2	1.81968400E-1	9.09764017E-1
4.91160956E+2	1.81805100E-1	9.09711295E-1
4.91015829E+2	1.81902300E-1	9.09715910E-1
4.91519607E+2	1.81964500E-1	9.09772813E-1
4.91232281E+2	1.81956700E-1	9.09785647E-1
4.90702477E+2	1.81948900E-1	9.09781041E-1
4.91763725E+2	1.81801300E-1	9.09749649E-1
4.91323810E+2	1.81952800E-1	9.09813059E-1
4.91862890E+2	1.81937300E-1	9.09810586E-1
4.92423403E+2	1.81851800E-1	9.09785812E-1
4.92011439E+2	1.81894500E-1	9.09787825E-1
4.92022696E+2	1.81840100E-1	9.09818009E-1
4.92063131E+2	1.81875100E-1	9.09821900E-1
4.92225954E+2	1.81832300E-1	9.09789703E-1
4.91938853E+2	1.82026700E-1	9.09802224E-1
4.92178134E+2	1.81999500E-1	9.09763006E-1
4.92178404E+2	1.81948900E-1	9.09780625E-1
4.91917194E+2	1.81882900E-1	9.09779865E-1
4.92387606E+2	1.81859500E-1	9.09780926E-1
4.92758003E+2	1.81816800E-1	9.09785173E-1
4.92313073E+2	1.81840100E-1	9.09797559E-1
4.92061364E+2	1.81867300E-1	9.09780388E-1
4.91897146E+2	1.81816800E-1	9.09778912E-1
4.91885438E+2	1.81968400E-1	9.09752350E-1
4.91714646E+2	1.81832300E-1	9.09737772E-1
4.91938932E+2	1.81875100E-1	9.09798275E-1
4.91807990E+2	1.81906200E-1	9.09789242E-1
4.91713601E+2	1.81983900E-1	9.09808873E-1
4.91933204E+2	1.81999500E-1	9.09804491E-1
4.91515926E+2	1.81960600E-1	9.09806503E-1
4.91389847E+2	1.82022800E-1	9.09823362E-1
4.91296008E+2	1.81882900E-1	9.09831187E-1
4.91360579E+2	1.81879000E-1	9.09857660E-1
4.91574103E+2	1.81964500E-1	9.09825866E-1
4.91572887E+2	1.81797400E-1	9.09827163E-1
4.91087662E+2	1.82015000E-1	9.09829935E-1
4.91661368E+2	1.81863400E-1	9.09858689E-1
4.91643312E+2	1.82030600E-1	9.09467943E-1
4.91504940E+2	1.81832300E-1	9.09837940E-1
4.91913662E+2	1.81809000E-1	9.09864368E-1
4.91139129E+2	1.81871200E-1	9.09837985E-1
4.91050468E+2	1.81886700E-1	9.09888069E-1
4.91833048E+2	1.81917800E-1	9.09762143E-1
4.91263484E+2	1.81999500E-1	9.09823720E-1
4.91453819E+2	1.82007200E-1	9.09848664E-1
4.91749565E+2	1.81859500E-1	9.09802018E-1
4.91911712E+2	1.81847900E-1	9.09839089E-1
4.92260953E+2	1.81863400E-1	9.09823840E-1
