# Begin of measurement: 19.07.2019 15:22:54
# R-Sample[Ohm]	I-Coil[A]	U-Magnetometer[V]
# Kei2000	HP E3631A +6V : I	Kei2000
4.92898319E+2	1.81871200E-1	9.09873745E-1
4.92601717E+2	1.82022800E-1	9.09895657E-1
4.92382519E+2	1.81863400E-1	9.09911129E-1
4.92142697E+2	1.82073300E-1	9.09916809E-1
4.91615550E+2	1.81844000E-1	9.09902991E-1
4.91615369E+2	1.81941200E-1	9.09908625E-1
4.91864929E+2	1.81910100E-1	9.09853305E-1
4.91695081E+2	1.81828500E-1	9.09870140E-1
4.91920539E+2	1.81983900E-1	9.09881409E-1
4.91766046E+2	1.81948900E-1	9.09840627E-1
4.91622180E+2	1.81816800E-1	9.09766082E-1
4.91113674E+2	1.81886700E-1	9.09855652E-1
4.91212962E+2	1.82007200E-1	9.09800559E-1
4.91208324E+2	1.81836200E-1	9.09794388E-1
4.91289961E+2	1.81882900E-1	9.09792018E-1
4.90987189E+2	1.81875100E-1	9.09796177E-1
4.91012946E+2	1.81871200E-1	9.09766842E-1
4.91126642E+2	1.81805100E-1	9.09772714E-1
4.91242996E+2	1.81836200E-1	9.09764530E-1
4.91013960E+2	1.81824600E-1	9.09771953E-1
4.90987573E+2	1.81886700E-1	9.09735821E-1
4.90527923E+2	1.81941200E-1	9.09739801E-1
4.90277430E+2	1.82011100E-1	9.09720304E-1
4.90919536E+2	1.81886700E-1	9.09747850E-1
4.91603292E+2	1.81875100E-1	9.09732065E-1
4.92355163E+2	1.81921700E-1	9.09726252E-1
4.92252528E+2	1.81921700E-1	9.09710735E-1
4.91758071E+2	1.81983900E-1	9.09714044E-1
4.91949892E+2	1.81863400E-1	9.09667448E-1
4.91744067E+2	1.82030600E-1	9.09697722E-1
4.91504606E+2	1.81824600E-1	9.09748834E-1
4.91363011E+2	1.81871200E-1	9.09760685E-1
4.90736266E+2	1.81964500E-1	9.09751338E-1
4.91843966E+2	1.81879000E-1	9.09734672E-1
4.91290566E+2	1.81812900E-1	9.09741648E-1
4.91509359E+2	1.81840100E-1	9.09733197E-1
4.91073664E+2	1.81828500E-1	9.09750413E-1
4.90610637E+2	1.81972300E-1	9.09722017E-1
4.91398695E+2	1.82003400E-1	9.09762084E-1
4.90960614E+2	1.81680800E-1	9.09775008E-1
4.91503252E+2	1.81832300E-1	9.09445437E-1
4.91398515E+2	1.81886700E-1	9.09836182E-1
4.91111819E+2	1.81917800E-1	9.09853130E-1
4.91546839E+2	1.81847900E-1	9.09835780E-1
4.91487990E+2	1.81987800E-1	9.09862074E-1
4.91658017E+2	1.81964500E-1	9.09837792E-1
4.91347681E+2	1.81824600E-1	9.09818340E-1
4.91360289E+2	1.81914000E-1	9.09802375E-1
4.91556208E+2	1.81995600E-1	9.09764141E-1
4.91693770E+2	1.81983900E-1	9.09814821E-1
4.90913131E+2	1.81991700E-1	9.09753155E-1
4.90875786E+2	1.81855700E-1	9.09742243E-1
4.91050226E+2	1.81836200E-1	9.09716844E-1
4.90603364E+2	1.81832300E-1	9.09711835E-1
4.91369568E+2	1.81976200E-1	9.09694314E-1
4.90695222E+2	1.81976200E-1	9.09693470E-1
4.91175362E+2	1.81879000E-1	9.09721463E-1
4.92160144E+2	1.81840100E-1	9.09766807E-1
4.91231433E+2	1.81945100E-1	9.09741184E-1
4.91086081E+2	1.81960600E-1	9.09687433E-1
4.90718739E+2	1.81983900E-1	9.09714040E-1
4.90839370E+2	1.82003400E-1	9.09709300E-1
4.90787678E+2	1.81972300E-1	9.09726337E-1
4.90944773E+2	1.81910100E-1	9.09734297E-1
4.90761958E+2	1.81968400E-1	9.09605375E-1
4.90813695E+2	1.82050000E-1	9.09769177E-1
4.90770468E+2	1.81859500E-1	9.09701027E-1
4.90849313E+2	1.81941200E-1	9.09713146E-1
4.90850529E+2	1.81871200E-1	9.09704828E-1
4.91743093E+2	1.81972300E-1	9.09757774E-1
4.92546978E+2	1.81987800E-1	9.09730720E-1
4.93532740E+2	1.81999500E-1	9.09724906E-1
4.95977424E+2	1.81859500E-1	9.09745298E-1
4.96471476E+2	1.81914000E-1	9.09770832E-1
4.98436247E+2	1.81902300E-1	9.09777137E-1
5.00038930E+2	1.81844000E-1	9.09759921E-1
5.00414987E+2	1.82003400E-1	9.09796545E-1
5.01386700E+2	1.81851800E-1	9.09831961E-1
5.03463861E+2	1.81851800E-1	9.09795471E-1
5.05615003E+2	1.81933400E-1	9.09797573E-1
5.07634482E+2	1.81824600E-1	9.09825829E-1
5.07674422E+2	1.82011100E-1	9.09828325E-1
5.08947984E+2	1.82015000E-1	9.09808828E-1
5.10607371E+2	1.81851800E-1	9.09822199E-1
5.12718978E+2	1.81929500E-1	9.09855425E-1
5.13869184E+2	1.81879000E-1	9.09808113E-1
5.16081745E+2	1.81832300E-1	9.09802970E-1
5.17072550E+2	1.81851800E-1	9.09774261E-1
5.18860269E+2	1.81840100E-1	9.09773904E-1
5.20118317E+2	1.82042200E-1	9.09798320E-1
5.21902658E+2	1.81902300E-1	9.09792685E-1
5.23667907E+2	1.82015000E-1	9.09777343E-1
5.24982961E+2	1.82034400E-1	9.09801240E-1
5.26423150E+2	1.81867300E-1	9.09771950E-1
5.29260046E+2	1.81828500E-1	9.09778613E-1
5.30941497E+2	1.81847900E-1	9.09790284E-1
5.32583232E+2	1.81809000E-1	9.09774588E-1
5.34809525E+2	1.81987800E-1	9.09812509E-1
5.36811397E+2	1.81855700E-1	9.09815639E-1
5.38977487E+2	1.82018900E-1	9.09780536E-1
5.40289970E+2	1.81820700E-1	9.09782593E-1
5.42044347E+2	1.81937300E-1	9.09795471E-1
5.44168425E+2	1.81863400E-1	9.09728708E-1
5.45212093E+2	1.81867300E-1	9.09789569E-1
5.46901153E+2	1.81991700E-1	9.09792699E-1
5.48779647E+2	1.81828500E-1	9.09801643E-1
5.50916378E+2	1.81875100E-1	9.09810139E-1
5.52721381E+2	1.81820700E-1	9.09815729E-1
5.55048132E+2	1.81886700E-1	9.09861073E-1
5.57039556E+2	1.82011100E-1	9.09829725E-1
5.59260715E+2	1.81855700E-1	9.09840905E-1
5.61182030E+2	1.81820700E-1	9.09925914E-1
5.62376632E+2	1.81863400E-1	9.09838982E-1
5.65079298E+2	1.81855700E-1	9.09865142E-1
5.67284416E+2	1.81921700E-1	9.09881330E-1
5.69279172E+2	1.81882900E-1	9.09873638E-1
5.72188229E+2	1.81840100E-1	9.09637393E-1
5.73594014E+2	1.81910100E-1	9.09914690E-1
5.74601434E+2	1.81832300E-1	9.09900201E-1
5.77084237E+2	1.82022800E-1	9.09880033E-1
5.78571834E+2	1.82018900E-1	9.09851458E-1
5.81022729E+2	1.81824600E-1	9.09851414E-1
5.83118844E+2	1.81855700E-1	9.09876813E-1
5.85181639E+2	1.81824600E-1	9.09842009E-1
5.87387534E+2	1.81832300E-1	9.09867767E-1
5.90376968E+2	1.81991700E-1	9.09837627E-1
5.92206992E+2	1.81995600E-1	9.09830248E-1
5.94084045E+2	1.81824600E-1	9.09825061E-1
5.97190552E+2	1.81987800E-1	9.09782608E-1
6.01255309E+2	1.82011100E-1	9.09828384E-1
6.02834229E+2	1.81886700E-1	9.09838893E-1
6.02944233E+2	1.82030600E-1	9.09828160E-1
6.04151760E+2	1.81976200E-1	9.09801285E-1
6.06896619E+2	1.81828500E-1	8.89110102E-1
6.08800058E+2	1.81972300E-1	8.61962987E-1
6.11195611E+2	1.81910100E-1	8.55628955E-1
6.14044510E+2	1.82050000E-1	8.49644797E-1
6.16130134E+2	1.81832300E-1	8.46011820E-1
6.17397288E+2	1.81762400E-1	8.42483259E-1
6.20300736E+2	1.81910100E-1	8.40006063E-1
6.22381857E+2	1.81832300E-1	8.36400274E-1
6.24970448E+2	1.81894500E-1	8.33736335E-1
6.26430313E+2	1.81964500E-1	8.30545887E-1
6.28290931E+2	1.81820700E-1	8.28082061E-1
6.31043470E+2	1.81952800E-1	8.25750198E-1
6.34487573E+2	1.81809000E-1	8.23439308E-1
6.37306305E+2	1.81987800E-1	8.20649622E-1
6.38507662E+2	1.81972300E-1	8.18485988E-1
6.40356076E+2	1.81991700E-1	8.16724011E-1
6.43871487E+2	1.81910100E-1	8.15659678E-1
6.45756014E+2	1.81886700E-1	8.15068641E-1
6.48402782E+2	1.81972300E-1	8.14210503E-1
6.50918967E+2	1.81851800E-1	8.12738209E-1
6.54309334E+2	1.81832300E-1	8.11371985E-1
6.56628700E+2	1.81945100E-1	8.10397089E-1
6.58510391E+2	1.81948900E-1	8.09085287E-1
6.61168776E+2	1.81809000E-1	8.08269498E-1
6.62395780E+2	1.81902300E-1	8.07256501E-1
6.64641272E+2	1.82042200E-1	8.06757136E-1
6.66720907E+2	1.81847900E-1	8.06634653E-1
6.69699535E+2	1.81867300E-1	8.06481402E-1
6.71835230E+2	1.81824600E-1	8.05924002E-1
6.73726197E+2	1.82038300E-1	8.05669334E-1
6.76705190E+2	1.81952800E-1	8.05595460E-1
6.80317960E+2	1.81844000E-1	8.05396107E-1
6.82141924E+2	1.81770100E-1	8.05215804E-1
6.84548151E+2	1.81828500E-1	8.05023338E-1
6.87242199E+2	1.81948900E-1	8.04831095E-1
6.90195746E+2	1.81836200E-1	8.04661167E-1
6.92966117E+2	1.81844000E-1	8.04578215E-1
6.96515164E+2	1.81999500E-1	8.04471384E-1
6.99168191E+2	1.81828500E-1	8.04271323E-1
7.01044343E+2	1.81851800E-1	8.04263139E-1
7.03702999E+2	1.82015000E-1	8.04323822E-1
7.06012865E+2	1.81910100E-1	8.04278164E-1
7.08524773E+2	1.81871200E-1	8.04280490E-1
7.11280564E+2	1.81925600E-1	8.04253391E-1
7.14079580E+2	1.81840100E-1	8.04181439E-1
7.17337563E+2	1.81855700E-1	8.04166056E-1
7.20222036E+2	1.81867300E-1	8.04150450E-1
7.23645364E+2	1.82003400E-1	8.04048359E-1
7.26871693E+2	1.81910100E-1	8.04097757E-1
7.29504148E+2	1.81859500E-1	8.04057653E-1
7.31148024E+2	1.81898400E-1	8.04009984E-1
7.33686770E+2	1.81851800E-1	8.03987848E-1
7.36458942E+2	1.81983900E-1	8.04006183E-1
7.39917707E+2	1.81824600E-1	8.03976669E-1
7.41849425E+2	1.81824600E-1	8.04020544E-1
7.44401724E+2	1.81968400E-1	8.03980298E-1
7.47739980E+2	1.81797400E-1	8.04012808E-1
7.50397285E+2	1.81820700E-1	8.04023987E-1
7.52652622E+2	1.81828500E-1	8.03963260E-1
7.54922953E+2	1.81832300E-1	8.03950471E-1
7.58284142E+2	1.82007200E-1	8.03965631E-1
7.60949642E+2	1.81964500E-1	8.03887374E-1
7.63920346E+2	1.81812900E-1	8.03893411E-1
7.66779398E+2	1.82030600E-1	8.03831521E-1
7.69546888E+2	1.81824600E-1	8.03836083E-1
7.72335902E+2	1.81847900E-1	8.03837782E-1
7.75757429E+2	1.81840100E-1	8.03751476E-1
7.79745053E+2	1.81840100E-1	8.03745216E-1
7.83229526E+2	1.81863400E-1	8.03732292E-1
7.85766044E+2	1.81991700E-1	8.03740654E-1
7.87579473E+2	1.81941200E-1	8.03730995E-1
7.90199856E+2	1.81906200E-1	8.03751118E-1
7.92970093E+2	1.81820700E-1	8.03747541E-1
7.95122901E+2	1.81983900E-1	8.03767798E-1
8.00940686E+2	1.81832300E-1	8.03759794E-1
8.02088793E+2	1.81844000E-1	8.03732330E-1
8.05210659E+2	1.81972300E-1	8.03737741E-1
8.07383010E+2	1.81968400E-1	8.03756075E-1
8.10616771E+2	1.82007200E-1	8.03714398E-1
8.13593465E+2	1.81863400E-1	8.03726069E-1
8.16229024E+2	1.81968400E-1	8.03724102E-1
8.19320225E+2	1.81952800E-1	8.03715561E-1
8.22910567E+2	1.81882900E-1	8.03710776E-1
8.25880551E+2	1.81987800E-1	8.03727590E-1
8.29781544E+2	1.81851800E-1	8.03693560E-1
8.32138557E+2	1.81789600E-1	8.03694767E-1
8.34821170E+2	1.82022800E-1	8.03671782E-1
8.37735709E+2	1.81879000E-1	8.03695930E-1
8.40074444E+2	1.81836200E-1	8.03695482E-1
8.42700680E+2	1.81847900E-1	8.03753392E-1
8.46867339E+2	1.81914000E-1	8.03675896E-1
8.50203719E+2	1.81925600E-1	8.03711006E-1
8.52980485E+2	1.81879000E-1	8.03690391E-1
8.54997480E+2	1.81844000E-1	8.03739984E-1
8.58177630E+2	1.81956700E-1	8.03673533E-1
8.60917340E+2	1.81847900E-1	8.03635522E-1
8.64148219E+2	1.81824600E-1	8.03665081E-1
8.67342716E+2	1.81972300E-1	8.03633331E-1
8.70817605E+2	1.81859500E-1	8.03623449E-1
8.73318258E+2	1.81882900E-1	8.03606456E-1
8.75836150E+2	1.81894500E-1	8.03607976E-1
8.78826263E+2	1.81840100E-1	8.03625132E-1
8.81982936E+2	1.81832300E-1	8.03633727E-1
8.85749969E+2	1.81851800E-1	8.03638422E-1
8.88993727E+2	1.81859500E-1	8.03653045E-1
8.91694262E+2	1.81948900E-1	8.03635516E-1
8.94132706E+2	1.81855700E-1	8.03663151E-1
8.96781552E+2	1.81952800E-1	8.03640435E-1
9.00002569E+2	1.81995600E-1	8.03652956E-1
9.03116959E+2	1.81914000E-1	8.03622771E-1
9.05495854E+2	1.82022800E-1	8.03678490E-1
9.08203007E+2	1.81859500E-1	8.03617360E-1
9.11403192E+2	1.81917800E-1	8.03612940E-1
9.15233422E+2	1.82015000E-1	8.03633778E-1
9.18658327E+2	1.81847900E-1	8.03646434E-1
9.21318380E+2	1.82073300E-1	8.03630425E-1
9.24160168E+2	1.81836200E-1	8.03581458E-1
9.26487011E+2	1.81859500E-1	8.03592483E-1
9.29492793E+2	1.81774000E-1	8.03606136E-1
9.31689693E+2	1.81980000E-1	8.03612173E-1
9.34560795E+2	1.82073300E-1	8.03601888E-1
9.37100261E+2	1.81867300E-1	8.03588293E-1
9.40016616E+2	1.81832300E-1	8.03612531E-1
9.42892760E+2	1.81836200E-1	8.03623934E-1
9.45868597E+2	1.81956700E-1	8.03579037E-1
9.48494752E+2	1.82003400E-1	8.03566158E-1
9.51525970E+2	1.82038300E-1	8.03562759E-1
9.54379735E+2	1.81980000E-1	8.03617405E-1
9.57399115E+2	1.81875100E-1	8.03590082E-1
9.59836052E+2	1.81840100E-1	8.03582927E-1
9.63287299E+2	1.81894500E-1	8.03576801E-1
9.65841130E+2	1.81991700E-1	8.03616734E-1
9.68462863E+2	1.81879000E-1	8.03615393E-1
9.71175599E+2	1.81851800E-1	8.03577695E-1
9.74060794E+2	1.81933400E-1	8.03582927E-1
9.76727196E+2	1.81816800E-1	8.03618299E-1
9.78988658E+2	1.82030600E-1	8.03409153E-1
9.82002318E+2	1.81999500E-1	8.03583911E-1
9.84933733E+2	1.81972300E-1	8.03583464E-1
9.87401155E+2	1.81991700E-1	8.03593794E-1
9.89911713E+2	1.81906200E-1	8.03637304E-1
9.92434475E+2	1.82026700E-1	8.03617941E-1
9.94850654E+2	1.82038300E-1	8.03609669E-1
9.97378908E+2	1.81855700E-1	8.03605152E-1
1.00009390E+3	1.81882900E-1	8.03484063E-1
1.00249247E+3	1.81824600E-1	8.03588479E-1
1.00515707E+3	1.81995600E-1	8.03617993E-1
1.00761981E+3	1.81882900E-1	8.03619379E-1
1.00994233E+3	1.81968400E-1	8.03618261E-1
1.01225850E+3	1.82003400E-1	8.03616562E-1
1.01482131E+3	1.81875100E-1	8.03614326E-1
1.01719852E+3	1.81898400E-1	8.03638027E-1
1.01970796E+3	1.81847900E-1	8.03654080E-1
1.02186923E+3	1.82018900E-1	8.03613968E-1
1.02426951E+3	1.81983900E-1	8.03614500E-1
1.02660234E+3	1.81890600E-1	8.03598176E-1
1.02877211E+3	1.81921700E-1	8.03580334E-1
1.03076837E+3	1.81886700E-1	8.03583553E-1
1.03325723E+3	1.82003400E-1	8.03558914E-1
1.03529350E+3	1.81859500E-1	8.03521261E-1
1.03759288E+3	1.81820700E-1	8.03534505E-1
1.03948272E+3	1.81898400E-1	8.03465281E-1
1.04159311E+3	1.81859500E-1	8.03499446E-1
1.04367729E+3	1.81879000E-1	8.03515723E-1
1.04560019E+3	1.82030600E-1	8.03532492E-1
1.04748589E+3	1.81952800E-1	8.03558835E-1
1.04945935E+3	1.81847900E-1	8.03494565E-1
1.05131884E+3	1.81820700E-1	8.03527298E-1
1.05307612E+3	1.82046100E-1	8.03516834E-1
1.05501977E+3	1.81855700E-1	8.03489198E-1
1.05676498E+3	1.81968400E-1	8.03481596E-1
1.05858580E+3	1.81917800E-1	8.03481373E-1
1.06038315E+3	1.81933400E-1	8.03471401E-1
1.06207707E+3	1.81840100E-1	8.03504313E-1
1.06362902E+3	1.81840100E-1	8.03511244E-1
1.06530607E+3	1.82003400E-1	8.03499215E-1
1.06686650E+3	1.81812900E-1	8.03479808E-1
1.06837481E+3	1.81851800E-1	8.03542905E-1
1.06994356E+3	1.81832300E-1	8.03499349E-1
1.07145642E+3	1.81847900E-1	8.03503553E-1
1.07284888E+3	1.81863400E-1	8.03459416E-1
1.07422228E+3	1.81863400E-1	8.03493268E-1
1.07555347E+3	1.81832300E-1	8.03459193E-1
1.07692314E+3	1.81812900E-1	8.03455615E-1
1.07824986E+3	1.81809000E-1	8.03506102E-1
1.07945675E+3	1.82007200E-1	8.03482938E-1
1.08058305E+3	1.81875100E-1	8.03490495E-1
1.08176806E+3	1.81894500E-1	8.03498053E-1
1.08285703E+3	1.81836200E-1	8.03436029E-1
1.08389480E+3	1.81952800E-1	8.03484592E-1
1.08487628E+3	1.81847900E-1	8.03489243E-1
1.08587145E+3	1.82007200E-1	8.03479897E-1
1.08683272E+3	1.81805100E-1	8.03491293E-1
1.08765822E+3	1.81964500E-1	8.03489460E-1
1.08847696E+3	1.81844000E-1	8.03475776E-1
1.08935226E+3	1.81809000E-1	8.03492858E-1
1.09007960E+3	1.81925600E-1	8.03526531E-1
1.09072549E+3	1.82057800E-1	8.03508740E-1
1.09133864E+3	1.81847900E-1	8.03545051E-1
1.09191888E+3	1.81925600E-1	8.03497874E-1
1.09249031E+3	1.81871200E-1	8.03520143E-1
1.09299415E+3	1.81999500E-1	8.03520680E-1
1.09334502E+3	1.81894500E-1	8.03533156E-1
1.09372123E+3	1.81855700E-1	8.03508785E-1
1.09402076E+3	1.81859500E-1	8.03535481E-1
1.09444740E+3	1.81972300E-1	8.03532217E-1
1.09458766E+3	1.81789600E-1	8.03453379E-1
1.09483227E+3	1.81980000E-1	8.03504313E-1
1.09506952E+3	1.81941200E-1	8.03469836E-1
1.09528538E+3	1.81898400E-1	8.03481098E-1
1.09549049E+3	1.81980000E-1	8.03425826E-1
1.09571378E+3	1.81894500E-1	8.03457621E-1
1.09591578E+3	1.81820700E-1	8.03468934E-1
1.09607577E+3	1.81948900E-1	8.03468308E-1
1.09624818E+3	1.82018900E-1	8.03454177E-1
