# Begin of measurement: 19.07.2019 14:40:56
# R-Sample[Ohm]	I-Coil[A]	U-Magnetometer[V]
# Kei2000	HP E3631A +6V : I	Kei2000
6.09418870E+2	-1.79224200E-2	-1.78001286E-1
6.10007663E+2	-1.80390300E-2	-1.77987424E-1
6.10096549E+2	-1.79768400E-2	-1.77996457E-1
6.10906748E+2	-1.78991000E-2	-1.77980179E-1
6.12346085E+2	-1.80040500E-2	-1.77980761E-1
6.12382333E+2	-1.80895600E-2	-1.77999006E-1
6.10491810E+2	-1.64726200E-2	-1.77993953E-1
6.09659367E+2	-1.50655600E-2	-1.70709054E-1
6.09998072E+2	-1.36546300E-2	-1.63388426E-1
6.09638339E+2	-1.23136500E-2	-1.56997125E-1
6.08596379E+2	-1.08560700E-2	-1.49750416E-1
6.09415853E+2	-9.35184400E-3	-1.42396652E-1
6.08839668E+2	-7.87482800E-3	-1.35214426E-1
6.09084893E+2	-6.37449000E-3	-1.27885436E-1
6.08696683E+2	-4.84305800E-3	-1.20559755E-1
6.09082173E+2	-3.26887000E-3	-1.13247355E-1
6.09871658E+2	-1.88125200E-3	-1.05998410E-1
6.10600445E+2	-2.48760600E-4	-9.86306047E-2
6.10593601E+2	1.22436900E-3	-9.13256280E-2
6.11692882E+2	2.43319000E-3	-8.40350058E-2
6.11642135E+2	3.80526000E-3	-7.79494854E-2
6.10463243E+2	5.37167500E-3	-7.06720550E-2
6.09676369E+2	6.84869000E-3	-6.33313041E-2
6.09430783E+2	8.45786000E-3	-5.60769033E-2
6.09165295E+2	9.85325100E-3	-4.87480474E-2
6.09865354E+2	1.14118900E-2	-4.14769222E-2
6.10177036E+2	1.28694700E-2	-3.41510176E-2
6.10445449E+2	1.43970200E-2	-2.67733759E-2
6.09288215E+2	1.58584900E-2	-1.95411997E-2
6.09281641E+2	1.72072400E-2	-1.22922988E-2
6.09562574E+2	1.88319500E-2	-4.96384482E-3
6.08836534E+2	2.01651600E-2	2.29615719E-3
6.10626734E+2	2.18170800E-2	9.70809036E-3
6.09774569E+2	2.31697200E-2	1.69932030E-2
6.08949646E+2	2.44446200E-2	2.43193222E-2
6.09133588E+2	2.60537900E-2	3.06914257E-2
6.09599543E+2	2.73908700E-2	3.76554178E-2
6.10051179E+2	2.89417400E-2	4.49352538E-2
6.09665195E+2	3.04770600E-2	5.22591337E-2
6.10849374E+2	3.18297000E-2	5.95786341E-2
6.10600867E+2	3.33766800E-2	6.68908455E-2
6.11256393E+2	3.48381400E-2	7.41514075E-2
6.10383965E+2	3.63462600E-2	8.15322164E-2
6.10891932E+2	3.77649700E-2	8.87590173E-2
6.09631088E+2	3.91214900E-2	9.60160516E-2
6.10207993E+2	4.05324300E-2	1.02435288E-1
6.09653621E+2	4.20988500E-2	1.09784795E-1
6.09973774E+2	4.35797500E-2	1.17093429E-1
6.10702876E+2	4.50723100E-2	1.24412662E-1
6.11281807E+2	4.66970300E-2	1.31693652E-1
6.11181169E+2	4.80613300E-2	1.39006534E-1
6.11445666E+2	4.95228000E-2	1.46277605E-1
6.11484048E+2	5.10853200E-2	1.53569156E-1
6.11078329E+2	5.26128700E-2	1.60950994E-1
6.11283929E+2	5.41598500E-2	1.68245318E-1
6.10376515E+2	5.55280400E-2	1.75583063E-1
6.10352920E+2	5.69350900E-2	1.82901356E-1
6.10629665E+2	5.83188100E-2	1.89275517E-1
6.11416515E+2	5.99279800E-2	1.96564877E-1
6.10047163E+2	6.14361000E-2	2.03856473E-1
6.09898523E+2	6.27498600E-2	2.11094229E-1
6.10869384E+2	6.43318200E-2	2.18457777E-1
6.10631498E+2	6.57311000E-2	2.25682877E-1
6.10177880E+2	6.72353300E-2	2.33046649E-1
6.10484165E+2	6.87628700E-2	2.40326350E-1
6.10272484E+2	7.03564900E-2	2.47692790E-1
6.09881051E+2	7.16974700E-2	2.54974233E-1
6.10379922E+2	7.30656600E-2	2.62274907E-1
6.09682790E+2	7.44027400E-2	2.68694858E-1
6.09827647E+2	7.58875300E-2	2.75727581E-1
6.09432386E+2	7.75394600E-2	2.83007282E-1
6.10719482E+2	7.89426200E-2	2.90335055E-1
6.10748570E+2	8.03768800E-2	2.97644404E-1
6.10043334E+2	8.19160800E-2	3.04924149E-1
6.11026892E+2	8.34008800E-2	3.12305986E-1
6.11101774E+2	8.49245400E-2	3.19584211E-1
6.11574934E+2	8.63471300E-2	3.26871961E-1
6.11018021E+2	8.78785700E-2	3.34154658E-1
6.10064696E+2	8.94683000E-2	3.41436193E-1
6.09722884E+2	9.08287100E-2	3.48688839E-1
6.09473111E+2	9.22824100E-2	3.56030430E-1
6.09418491E+2	9.38954600E-2	3.63358784E-1
6.09745308E+2	9.51703600E-2	3.70668312E-1
6.10627688E+2	9.66823700E-2	3.77068810E-1
6.10201493E+2	9.80971800E-2	3.84353341E-1
6.09670381E+2	9.97413400E-2	3.91465483E-1
6.09657143E+2	1.01035700E-1	3.98895973E-1
6.09204156E+2	1.02695400E-1	4.06179430E-1
6.09074834E+2	1.04145200E-1	4.13491641E-1
6.09915922E+2	1.05525000E-1	4.20773757E-1
6.09862767E+2	1.07107000E-1	4.28115795E-1
6.09398761E+2	1.08646200E-1	4.35431136E-1
6.08841983E+2	1.10014400E-1	4.42711329E-1
6.09711709E+2	1.11475800E-1	4.49933656E-1
6.09958601E+2	1.12949000E-1	4.57193413E-1
6.09828649E+2	1.14600900E-1	4.64530979E-1
6.09042495E+2	1.16050700E-1	4.71854414E-1
6.09071711E+2	1.17403300E-1	4.79110325E-1
6.09198962E+2	1.18868700E-1	4.86436309E-1
6.09822787E+2	1.20291300E-1	4.92853979E-1
6.10004838E+2	1.21624500E-1	5.00198029E-1
6.10255422E+2	1.23268700E-1	5.07186616E-1
6.09901002E+2	1.24621300E-1	5.14506921E-1
6.08888213E+2	1.26133300E-1	5.21792703E-1
6.10391671E+2	1.27668600E-1	5.29170292E-1
6.09106601E+2	1.29242800E-1	5.36345978E-1
6.08647040E+2	1.30774200E-1	5.43702326E-1
6.08948551E+2	1.32053000E-1	5.51074683E-1
6.09005917E+2	1.33673800E-1	5.58296429E-1
6.09874495E+2	1.35065400E-1	5.65500243E-1
6.10064403E+2	1.36476300E-1	5.72873002E-1
6.08626868E+2	1.38167100E-1	5.80174660E-1
6.08285552E+2	1.39667400E-1	5.87435266E-1
6.08537126E+2	1.41175500E-1	5.94744168E-1
6.09030864E+2	1.42396000E-1	6.02066574E-1
6.09588001E+2	1.43919700E-1	6.09110969E-1
6.10289141E+2	1.45326700E-1	6.15768373E-1
6.10470696E+2	1.46904800E-1	6.23079555E-1
6.09406041E+2	1.48315700E-1	6.30387160E-1
6.09320217E+2	1.49823800E-1	6.37688862E-1
6.09534733E+2	1.51468000E-1	6.45022672E-1
6.08662350E+2	1.52863400E-1	6.52372312E-1
6.08921160E+2	1.54239300E-1	6.59654025E-1
6.09764732E+2	1.55763000E-1	6.66951390E-1
6.11216723E+2	1.57208900E-1	6.74338727E-1
6.11109285E+2	1.58899700E-1	6.81520272E-1
6.10965688E+2	1.60217400E-1	6.88801359E-1
6.11760532E+2	1.61849900E-1	6.96160479E-1
6.10777379E+2	1.63194700E-1	7.03504395E-1
6.11977660E+2	1.64761100E-1	7.10842596E-1
6.10428363E+2	1.66144900E-1	7.18154397E-1
6.10148961E+2	1.67769600E-1	7.25520628E-1
6.09749378E+2	1.68931800E-1	7.32935422E-1
6.09941830E+2	1.70548700E-1	7.39104103E-1
6.09608934E+2	1.71874100E-1	7.46455532E-1
6.09787112E+2	1.73343400E-1	7.53851228E-1
6.11460957E+2	1.74874800E-1	7.61240041E-1
6.12359502E+2	1.76316800E-1	7.68551358E-1
6.11734236E+2	1.77976600E-1	7.75803155E-1
6.10997118E+2	1.79356400E-1	7.83152347E-1
6.10281750E+2	1.80988900E-1	7.90616868E-1
6.11006349E+2	1.82411500E-1	7.98070969E-1
6.10231813E+2	1.83760200E-1	8.05524132E-1
6.10410622E+2	1.85338300E-1	8.13117038E-1
6.09820162E+2	1.86753100E-1	8.20670011E-1
6.09618209E+2	1.88280700E-1	8.28686621E-1
6.10342448E+2	1.89905400E-1	8.36582457E-1
6.09380914E+2	1.91417400E-1	8.44648391E-1
6.09322339E+2	1.92890500E-1	8.54848541E-1
6.10668333E+2	1.94002200E-1	8.63580060E-1
6.11031624E+2	1.95533600E-1	8.69634933E-1
6.11065035E+2	1.97030100E-1	8.77399781E-1
6.10154917E+2	1.98561500E-1	8.88013662E-1
6.09465260E+2	2.00026800E-1	9.12017926E-1
6.09924075E+2	2.01632100E-1	9.44469347E-1
6.10265031E+2	2.03136300E-1	9.65799156E-1
6.09879226E+2	2.04582300E-1	9.89310627E-1
6.10461581E+2	2.05931000E-1	1.01379887E+0
6.10726754E+2	2.07524600E-1	1.02913221E+0
6.10433528E+2	2.09095000E-1	1.04634139E+0
6.10222820E+2	2.10587500E-1	1.05686606E+0
6.10842504E+2	2.11897400E-1	1.06498869E+0
6.10574133E+2	2.13362700E-1	1.07317856E+0
6.10095435E+2	2.14917500E-1	1.08130048E+0
6.11279191E+2	2.16421700E-1	1.08940103E+0
6.11725109E+2	2.17929800E-1	1.09718949E+0
6.11609491E+2	2.19263000E-1	1.10534741E+0
6.11521966E+2	2.20732300E-1	1.11242449E+0
6.10865765E+2	2.22318100E-1	1.12058889E+0
6.11770569E+2	2.23558000E-1	1.12880459E+0
6.10642918E+2	2.24949600E-1	1.13686994E+0
6.10314030E+2	2.26667500E-1	1.14498091E+0
6.10598205E+2	2.28121200E-1	1.15319183E+0
6.09628629E+2	2.29528300E-1	1.16124553E+0
6.10163704E+2	2.31164700E-1	1.16938167E+0
6.09563383E+2	2.32494000E-1	1.17752971E+0
6.10457830E+2	2.33986500E-1	1.18564653E+0
6.10608766E+2	2.35545200E-1	1.19379273E+0
6.10306940E+2	2.37076600E-1	1.20195352E+0
6.09377796E+2	2.38639100E-1	1.21002535E+0
6.09531794E+2	2.40089000E-1	1.21822338E+0
6.10179845E+2	2.41461000E-1	1.22635362E+0
6.09448761E+2	2.42887500E-1	1.23445395E+0
6.10077360E+2	2.44376200E-1	1.24148832E+0
6.09914131E+2	2.45775500E-1	1.24967607E+0
6.10216800E+2	2.47271900E-1	1.25776656E+0
6.11233937E+2	2.48838300E-1	1.26591616E+0
6.10651222E+2	2.50354200E-1	1.27401541E+0
6.09470438E+2	2.51858400E-1	1.28214956E+0
6.09869887E+2	2.53160500E-1	1.29020791E+0
6.08863138E+2	2.54645300E-1	1.29831740E+0
6.10189995E+2	2.56211800E-1	1.30643288E+0
6.10050793E+2	2.57630500E-1	1.31459456E+0
6.11451406E+2	2.59130800E-1	1.32273133E+0
6.12519078E+2	2.60771100E-1	1.33080151E+0
6.12077888E+2	2.62143100E-1	1.33890241E+0
6.11333791E+2	2.63729000E-1	1.34710470E+0
6.10404402E+2	2.65186600E-1	1.35486462E+0
6.09464020E+2	2.66298200E-1	1.36306775E+0
6.09754679E+2	2.67837400E-1	1.37014336E+0
6.09674033E+2	2.69361100E-1	1.37823921E+0
6.09903408E+2	2.70845900E-1	1.38639785E+0
6.09302142E+2	2.72311200E-1	1.39447975E+0
6.09829336E+2	2.73967000E-1	1.40262054E+0
6.09596989E+2	2.75370200E-1	1.41073580E+0
6.09239372E+2	2.76820000E-1	1.41880375E+0
6.08431425E+2	2.78265900E-1	1.42686768E+0
6.07909679E+2	2.79820700E-1	1.43499134E+0
6.08312054E+2	2.81457100E-1	1.44305343E+0
6.08915572E+2	2.82712500E-1	1.45121301E+0
6.08688030E+2	2.84368400E-1	1.45929066E+0
6.09360074E+2	2.85783200E-1	1.46737694E+0
6.09436442E+2	2.87233000E-1	1.47549265E+0
6.09824948E+2	2.88803300E-1	1.48357464E+0
6.09908837E+2	2.90311400E-1	1.49159979E+0
6.10265418E+2	2.91656300E-1	1.49970235E+0
6.09893887E+2	2.92962300E-1	1.50679021E+0
6.08971156E+2	2.94346000E-1	1.51487869E+0
6.09803014E+2	2.95842400E-1	1.52300092E+0
6.10504378E+2	2.97517700E-1	1.53112428E+0
6.09970250E+2	2.99123000E-1	1.53921879E+0
6.09669369E+2	3.00549500E-1	1.54739357E+0
6.10198364E+2	3.01937100E-1	1.55534829E+0
6.09237770E+2	3.03394700E-1	1.56348962E+0
6.09896313E+2	3.04992200E-1	1.57160523E+0
6.10507125E+2	3.06344800E-1	1.57966066E+0
6.10048960E+2	3.07841300E-1	1.58780132E+0
6.10142844E+2	3.09528100E-1	1.59588103E+0
6.09621098E+2	3.10997400E-1	1.60403949E+0
6.10419189E+2	3.12287800E-1	1.61210489E+0
6.11200636E+2	3.13908700E-1	1.61991928E+0
6.09910658E+2	3.15346800E-1	1.62800649E+0
6.09479014E+2	3.16870500E-1	1.63608991E+0
6.09968790E+2	3.18079300E-1	1.64419153E+0
6.10217528E+2	3.19688500E-1	1.65128659E+0
6.11123502E+2	3.21041100E-1	1.65935454E+0
6.11596861E+2	3.22564700E-1	1.66743505E+0
6.11366675E+2	3.24150600E-1	1.67556212E+0
6.10361683E+2	3.25549900E-1	1.68357287E+0
6.10783105E+2	3.27030800E-1	1.69162141E+0
6.10049320E+2	3.28562200E-1	1.69974391E+0
6.09258844E+2	3.30140300E-1	1.70783941E+0
6.09992787E+2	3.31636800E-1	1.71594813E+0
6.09951197E+2	3.33098200E-1	1.72399046E+0
6.09299363E+2	3.34586900E-1	1.73210438E+0
6.09583854E+2	3.35916200E-1	1.74013901E+0
6.09442374E+2	3.37560400E-1	1.74827028E+0
6.09435980E+2	3.38955800E-1	1.75627249E+0
6.09091599E+2	3.40588200E-1	1.76435551E+0
6.09647498E+2	3.41727100E-1	1.77251352E+0
6.10081573E+2	3.43215800E-1	1.77956109E+0
6.09708151E+2	3.44766600E-1	1.78766128E+0
6.09346122E+2	3.46193100E-1	1.79573742E+0
6.09568923E+2	3.47829500E-1	1.80382638E+0
6.08664210E+2	3.49275400E-1	1.81186012E+0
6.09652329E+2	3.50783500E-1	1.81994998E+0
6.09845816E+2	3.52178900E-1	1.82803211E+0
6.09189660E+2	3.53792000E-1	1.83613480E+0
6.08837177E+2	3.55136800E-1	1.84421124E+0
6.08873785E+2	3.56703300E-1	1.85229708E+0
6.09077359E+2	3.58094800E-1	1.86038439E+0
6.09829863E+2	3.59719500E-1	1.86856615E+0
6.09830570E+2	3.61091600E-1	1.87624353E+0
6.09207330E+2	3.62661900E-1	1.88429208E+0
6.09587867E+2	3.63831800E-1	1.89232126E+0
6.09852544E+2	3.65324400E-1	1.89947293E+0
6.11106950E+2	3.66898600E-1	1.90753887E+0
6.11862619E+2	3.68274500E-1	1.91559103E+0
6.10653602E+2	3.69949800E-1	1.92368467E+0
6.10910490E+2	3.71430700E-1	1.93168260E+0
6.10590517E+2	3.72798900E-1	1.93969492E+0
6.11739961E+2	3.74256400E-1	1.94778626E+0
6.11029546E+2	3.75760700E-1	1.95583721E+0
6.11254959E+2	3.77315400E-1	1.96387753E+0
6.10711554E+2	3.78784700E-1	1.97196336E+0
6.10914453E+2	3.80285000E-1	1.98004982E+0
6.10873207E+2	3.81905800E-1	1.98815941E+0
6.10541076E+2	3.83172900E-1	1.99616108E+0
6.10214709E+2	3.84642200E-1	2.00377443E+0
6.10877754E+2	3.86169700E-1	2.01187694E+0
6.11460819E+2	3.87701200E-1	2.01989087E+0
6.11484353E+2	3.88948900E-1	2.02798923E+0
6.10503136E+2	3.90449200E-1	2.03503085E+0
6.10655963E+2	3.92062300E-1	2.04309741E+0
6.10178255E+2	3.93543100E-1	2.05113832E+0
6.10578964E+2	3.94856900E-1	2.05921440E+0
6.09843648E+2	3.96345600E-1	2.06716138E+0
6.10922712E+2	3.97904300E-1	2.07525790E+0
6.11133220E+2	3.99326800E-1	2.08323816E+0
6.10136153E+2	4.00998200E-1	2.09132364E+0
6.10378091E+2	4.02471400E-1	2.09930376E+0
6.10339232E+2	4.03944400E-1	2.10745783E+0
6.09565326E+2	4.05398200E-1	2.11542445E+0
6.10601489E+2	4.06820700E-1	2.12344357E+0
6.10062544E+2	4.08290000E-1	2.13122129E+0
6.09492348E+2	4.09681500E-1	2.13926308E+0
6.09494374E+2	4.11333400E-1	2.14734489E+0
6.09669310E+2	4.12546100E-1	2.15538901E+0
6.10065876E+2	4.14034800E-1	2.16244794E+0
6.09616174E+2	4.15484600E-1	2.17047604E+0
6.10448593E+2	4.17105400E-1	2.17851800E+0
6.10193011E+2	4.18551300E-1	2.18654946E+0
6.09671940E+2	4.20098400E-1	2.19452945E+0
6.10156583E+2	4.21447100E-1	2.20253479E+0
6.09656541E+2	4.23071800E-1	2.21057157E+0
6.10384202E+2	4.24599400E-1	2.21859006E+0
6.10621511E+2	4.25932600E-1	2.22669968E+0
6.09620453E+2	4.27355200E-1	2.23467001E+0
6.09562186E+2	4.28874900E-1	2.24273272E+0
6.10602930E+2	4.30530700E-1	2.25077527E+0
6.09772919E+2	4.32042700E-1	2.25880897E+0
6.08754554E+2	4.33372100E-1	2.26683143E+0
6.08995967E+2	4.34853000E-1	2.27484827E+0
6.09521204E+2	4.36330000E-1	2.28290861E+0
6.08825692E+2	4.37752600E-1	2.29093041E+0
6.08991398E+2	4.39299500E-1	2.29794498E+0
6.08824026E+2	4.40726000E-1	2.30594599E+0
6.09801416E+2	4.42280800E-1	2.31395213E+0
6.09980270E+2	4.43707300E-1	2.32190887E+0
6.10005621E+2	4.45262100E-1	2.32999327E+0
6.08856897E+2	4.46641900E-1	2.33804159E+0
6.08836094E+2	4.48072200E-1	2.34609621E+0
6.09062813E+2	4.49704700E-1	2.35408411E+0
6.09139722E+2	4.51201200E-1	2.36208775E+0
6.09649175E+2	4.52759800E-1	2.37013665E+0
6.09463026E+2	4.54015300E-1	2.37820742E+0
6.09627631E+2	4.55601200E-1	2.38582031E+0
6.09756097E+2	4.57039300E-1	2.39389926E+0
6.10469980E+2	4.58570700E-1	2.40187974E+0
6.10532795E+2	4.59962200E-1	2.40991120E+0
6.11443182E+2	4.61295400E-1	2.41800065E+0
6.11563715E+2	4.62943500E-1	2.42508212E+0
6.10836081E+2	4.64389400E-1	2.43307776E+0
6.10176097E+2	4.65843100E-1	2.44112111E+0
6.11729402E+2	4.67230700E-1	2.44907919E+0
6.10550645E+2	4.68847700E-1	2.45712254E+0
6.11061944E+2	4.70340200E-1	2.46510024E+0
6.09936635E+2	4.71840600E-1	2.47312634E+0
6.09660950E+2	4.73243700E-1	2.48115073E+0
6.09564049E+2	4.74720700E-1	2.48919278E+0
6.09293472E+2	4.76217200E-1	2.49721378E+0
6.09549730E+2	4.77721400E-1	2.50523365E+0
6.09651719E+2	4.79303400E-1	2.51321395E+0
6.10235379E+2	4.80714300E-1	2.52108648E+0
6.11490190E+2	4.82175800E-1	2.52911445E+0
6.10487179E+2	4.83722700E-1	2.53715937E+0
6.10347996E+2	4.85215300E-1	2.54516453E+0
6.10416889E+2	4.86774000E-1	2.55318651E+0
6.09946116E+2	4.88289800E-1	2.56117423E+0
6.09956202E+2	4.89766900E-1	2.56916097E+0
6.11283008E+2	4.91251700E-1	2.57718076E+0
6.12715705E+2	4.92685900E-1	2.58513906E+0
6.11245343E+2	4.94135700E-1	2.59315164E+0
6.10278535E+2	4.95608900E-1	2.60107050E+0
6.10568429E+2	4.97031500E-1	2.60906726E+0
6.10996380E+2	4.98675600E-1	2.61712121E+0
6.10484991E+2	4.99818400E-1	2.62512543E+0
6.10367814E+2	5.01353700E-1	2.63204963E+0
6.10095436E+2	5.02718000E-1	2.64014619E+0
6.10814002E+2	5.04233800E-1	2.64783068E+0
6.09744619E+2	5.05854700E-1	2.65584573E+0
6.09107510E+2	5.07382200E-1	2.66375962E+0
6.09821078E+2	5.08874800E-1	2.67173541E+0
6.09956868E+2	5.10211900E-1	2.67978359E+0
6.09937720E+2	5.11681100E-1	2.68775067E+0
6.10808392E+2	5.13309700E-1	2.69573494E+0
6.11317079E+2	5.14658500E-1	2.70379676E+0
6.11569419E+2	5.16155000E-1	2.71168901E+0
6.12131150E+2	5.17686400E-1	2.71969770E+0
6.10735176E+2	5.19350000E-1	2.72766092E+0
6.10332981E+2	5.20667600E-1	2.73567677E+0
6.10727206E+2	5.22307900E-1	2.74369615E+0
6.10440194E+2	5.23699300E-1	2.75166062E+0
6.10263412E+2	5.25312400E-1	2.75968819E+0
6.10612068E+2	5.26544600E-1	2.76765217E+0
6.11218467E+2	5.27967200E-1	2.77461741E+0
6.12014729E+2	5.29556900E-1	2.78262780E+0
6.11803227E+2	5.31053400E-1	2.79060918E+0
6.09793738E+2	5.32561500E-1	2.79861582E+0
6.10450344E+2	5.33898500E-1	2.80658561E+0
6.09365156E+2	5.35461100E-1	2.81457482E+0
6.09203008E+2	5.36879800E-1	2.82250748E+0
6.09014822E+2	5.38415100E-1	2.83052633E+0
6.08701666E+2	5.39880500E-1	2.83836653E+0
6.10759426E+2	5.41330300E-1	2.84639128E+0
6.10132673E+2	5.42966700E-1	2.85437727E+0
6.09575220E+2	5.44428100E-1	2.86237075E+0
6.09079906E+2	5.45846800E-1	2.87034980E+0
6.09000566E+2	5.47397700E-1	2.87829665E+0
6.09152467E+2	5.48975800E-1	2.88625410E+0
6.09807813E+2	5.50056400E-1	2.89432165E+0
6.09624096E+2	5.51692700E-1	2.90095494E+0
6.10926998E+2	5.53150300E-1	2.90894463E+0
6.10379765E+2	5.54592300E-1	2.91691626E+0
6.10813210E+2	5.56100400E-1	2.92489964E+0
6.11803924E+2	5.57635700E-1	2.93283956E+0
6.11538086E+2	5.59015600E-1	2.94082393E+0
6.12520879E+2	5.60434300E-1	2.94880634E+0
6.12184020E+2	5.62152300E-1	2.95673226E+0
6.11754043E+2	5.63586600E-1	2.96466668E+0
6.11372696E+2	5.65036300E-1	2.97259698E+0
6.10796246E+2	5.66528900E-1	2.98061556E+0
6.09948405E+2	5.68107000E-1	2.98848787E+0
6.09508026E+2	5.69545200E-1	2.99656154E+0
6.10764728E+2	5.71107700E-1	3.00450235E+0
6.10754822E+2	5.72433100E-1	3.01251275E+0
6.09695570E+2	5.73684700E-1	3.02043702E+0
6.10851183E+2	5.75328800E-1	3.02722307E+0
6.11146036E+2	5.76638700E-1	3.03521697E+0
6.10302155E+2	5.78166200E-1	3.04314857E+0
6.10265952E+2	5.79678200E-1	3.05110691E+0
6.10416528E+2	5.81291300E-1	3.05911731E+0
6.10233442E+2	5.82772300E-1	3.06706823E+0
6.09576835E+2	5.84136500E-1	3.07505079E+0
6.10316610E+2	5.85652400E-1	3.08298123E+0
6.10563636E+2	5.87113900E-1	3.09088086E+0
6.11485911E+2	5.88761900E-1	3.09887082E+0
6.11417288E+2	5.90223400E-1	3.10678963E+0
6.10531171E+2	5.91785900E-1	3.11476072E+0
6.09952013E+2	5.93095800E-1	3.12270462E+0
6.10888877E+2	5.94670000E-1	3.13074877E+0
6.09871836E+2	5.96220900E-1	3.13864898E+0
6.10012686E+2	5.97627900E-1	3.14660469E+0
6.10196312E+2	5.98992200E-1	3.15424696E+0
6.10595130E+2	6.00473100E-1	3.16118936E+0
6.09669658E+2	6.01790700E-1	3.16915789E+0
6.09703610E+2	6.03244400E-1	3.17713565E+0
6.09814009E+2	6.04787500E-1	3.18510365E+0
6.09496015E+2	6.06260700E-1	3.19307827E+0
6.09878623E+2	6.07928200E-1	3.20102856E+0
6.09919149E+2	6.09447900E-1	3.20897045E+0
6.09694366E+2	6.10893900E-1	3.21684588E+0
6.09765466E+2	6.12343700E-1	3.22479980E+0
6.10466276E+2	6.13816800E-1	3.23271964E+0
6.10024902E+2	6.15235500E-1	3.24065634E+0
6.10566055E+2	6.16658100E-1	3.24864017E+0
6.09702858E+2	6.18259500E-1	3.25658707E+0
6.09486541E+2	6.19868700E-1	3.26453857E+0
6.10307456E+2	6.21143500E-1	3.27249642E+0
6.11148318E+2	6.22527300E-1	3.27946135E+0
6.11282170E+2	6.24120900E-1	3.28747984E+0
6.10879389E+2	6.25566900E-1	3.29537777E+0
6.11326207E+2	6.26962200E-1	3.30330271E+0
6.11712057E+2	6.28485900E-1	3.31130447E+0
6.10505518E+2	6.29974600E-1	3.31921116E+0
6.10087203E+2	6.31478800E-1	3.32713409E+0
6.10797445E+2	6.32959700E-1	3.33506811E+0
6.11012919E+2	6.34576600E-1	3.34293688E+0
6.11191683E+2	6.36057500E-1	3.35085659E+0
6.11339466E+2	6.37445200E-1	3.35879248E+0
6.12155473E+2	6.39062100E-1	3.36676518E+0
6.11982158E+2	6.40543000E-1	3.37467572E+0
6.12718645E+2	6.41903400E-1	3.38258527E+0
6.11234235E+2	6.43368800E-1	3.39056942E+0
6.09622213E+2	6.44923500E-1	3.39850419E+0
6.10912371E+2	6.46097400E-1	3.40614826E+0
6.10700782E+2	6.47939700E-1	3.41304432E+0
6.11029310E+2	6.49455600E-1	3.42198011E+0
6.09941781E+2	6.50730500E-1	3.42993452E+0
6.09789971E+2	6.52269700E-1	3.43785074E+0
6.09498501E+2	6.53731200E-1	3.44577145E+0
6.10951077E+2	6.55468700E-1	3.45356445E+0
6.10894971E+2	6.56930100E-1	3.46264973E+0
6.11497588E+2	6.58391500E-1	3.47047088E+0
6.11457377E+2	6.59923000E-1	3.47841997E+0
6.11603185E+2	6.61621600E-1	3.48639658E+0
6.11202656E+2	6.63075300E-1	3.49529921E+0
6.10217117E+2	6.64563900E-1	3.50325916E+0
6.09649578E+2	6.66262500E-1	3.51117959E+0
6.10190461E+2	6.67696800E-1	3.51916471E+0
6.10049701E+2	6.69333200E-1	3.52704310E+0
6.10023881E+2	6.70891800E-1	3.53581688E+0
6.09615743E+2	6.72201600E-1	3.54375291E+0
6.09982680E+2	6.73667000E-1	3.55169363E+0
6.10227635E+2	6.75373400E-1	3.55957027E+0
6.10384650E+2	6.76838700E-1	3.56852131E+0
6.09751999E+2	6.78366200E-1	3.58312476E+0
6.09504717E+2	6.80107600E-1	3.58438326E+0
6.09057936E+2	6.81390200E-1	3.59327228E+0
6.10828276E+2	6.82952800E-1	3.60007256E+0
6.11319987E+2	6.84670800E-1	3.60900079E+0
6.11619517E+2	6.86007900E-1	3.61689477E+0
6.11474930E+2	6.87442100E-1	3.62481452E+0
6.11683773E+2	6.89346700E-1	3.63281154E+0
6.10942919E+2	6.90823700E-1	3.64170190E+0
6.09823826E+2	6.92199700E-1	3.64963542E+0
6.10112368E+2	6.93781600E-1	3.65755253E+0
6.10793379E+2	6.95079900E-1	3.66520880E+0
6.10227776E+2	6.96782300E-1	3.67311286E+0
6.10051535E+2	6.98395400E-1	3.68196252E+0
6.09765784E+2	6.99779100E-1	3.68988156E+0
6.09860029E+2	7.01279400E-1	3.69777613E+0
6.10687382E+2	7.02904200E-1	3.70574315E+0
6.10625918E+2	7.04412300E-1	3.71465094E+0
6.10436844E+2	7.06037000E-1	3.72247880E+0
6.11398374E+2	7.07397400E-1	3.73040271E+0
6.11994204E+2	7.08878300E-1	3.73827465E+0
6.10875517E+2	7.10491400E-1	3.74620160E+0
6.10395738E+2	7.12077200E-1	3.75514397E+0
6.10759929E+2	7.13542600E-1	3.76303188E+0
6.10732416E+2	7.15007900E-1	3.77091545E+0
6.09540461E+2	7.16733700E-1	3.77888684E+0
6.08880420E+2	7.18226200E-1	3.78776462E+0
6.08894244E+2	7.19711100E-1	3.79563643E+0
6.09125195E+2	7.21195800E-1	3.80360560E+0
6.09382713E+2	7.22828300E-1	3.81155177E+0
6.08809770E+2	7.24441400E-1	3.81945247E+0
6.09076294E+2	7.25922300E-1	3.82832910E+0
6.09398896E+2	7.27329300E-1	3.83626455E+0
6.08944379E+2	7.28923000E-1	3.84415402E+0
6.09028312E+2	7.30644900E-1	3.85197249E+0
6.09045828E+2	7.32044200E-1	3.86091762E+0
6.10219180E+2	7.33591100E-1	3.86877132E+0
6.10543340E+2	7.35153600E-1	3.87668647E+0
6.11735946E+2	7.36475200E-1	3.88461574E+0
6.11355905E+2	7.38232100E-1	3.89250522E+0
6.10160624E+2	7.39678000E-1	3.90137473E+0
6.10907737E+2	7.41100500E-1	3.90927172E+0
6.10106050E+2	7.42698100E-1	3.91683511E+0
6.10270269E+2	7.44252900E-1	3.92476810E+0
6.09824757E+2	7.45772600E-1	3.93365966E+0
6.11138103E+2	7.47424600E-1	3.94155535E+0
6.10303770E+2	7.48792700E-1	3.94946421E+0
6.09985914E+2	7.50398000E-1	3.95738780E+0
6.10781567E+2	7.51964400E-1	3.96616806E+0
6.10486766E+2	7.53387000E-1	3.97401385E+0
6.10358064E+2	7.54895200E-1	3.98186553E+0
6.10711580E+2	7.56317800E-1	3.98976310E+0
6.09422729E+2	7.58230100E-1	3.99765115E+0
6.10105586E+2	7.59563300E-1	4.00654293E+0
6.09693440E+2	7.61024700E-1	4.01449792E+0
6.09600096E+2	7.62676700E-1	4.02235502E+0
6.09048902E+2	7.64103200E-1	4.03025643E+0
6.09410931E+2	7.65451900E-1	4.03772900E+0
6.09510084E+2	7.67084400E-1	4.04562841E+0
6.09837531E+2	7.68557500E-1	4.05354896E+0
6.09884766E+2	7.69883000E-1	4.06142873E+0
6.09181646E+2	7.71616500E-1	4.06928945E+0
6.09647443E+2	7.73093500E-1	4.07824590E+0
6.09782242E+2	7.74652200E-1	4.08607487E+0
6.10791061E+2	7.76051500E-1	4.09392567E+0
6.11344596E+2	7.77707200E-1	4.10182878E+0
6.11382420E+2	7.79207600E-1	4.11065823E+0
6.11751158E+2	7.80871200E-1	4.11853702E+0
6.11330817E+2	7.82371500E-1	4.12650068E+0
6.11275612E+2	7.83976800E-1	4.13434454E+0
6.09795751E+2	7.85407200E-1	4.14327139E+0
6.10767106E+2	7.86888100E-1	4.15118501E+0
6.10352033E+2	7.88302900E-1	4.15907998E+0
6.11284573E+2	7.89962600E-1	4.16663488E+0
6.11032053E+2	7.91641700E-1	4.17448330E+0
6.10771383E+2	7.92986600E-1	4.18333721E+0
6.10945193E+2	7.94634600E-1	4.19124511E+0
6.09716231E+2	7.95979500E-1	4.19913253E+0
6.09843166E+2	7.97647000E-1	4.20700103E+0
6.09291162E+2	7.99291100E-1	4.21593020E+0
6.08959977E+2	8.00663200E-1	4.22380040E+0
6.09832018E+2	8.02116900E-1	4.23164749E+0
6.09969399E+2	8.04009800E-1	4.23949765E+0
6.10402979E+2	8.05448000E-1	4.24833104E+0
6.09801488E+2	8.06742300E-1	4.25624332E+0
6.09706703E+2	8.08246500E-1	4.26414903E+0
6.10418874E+2	8.09801300E-1	4.27202124E+0
6.11387810E+2	8.11569800E-1	4.27992681E+0
6.11237820E+2	8.13007900E-1	4.28882285E+0
6.11401814E+2	8.14492700E-1	4.29670101E+0
6.10511420E+2	8.15942600E-1	4.30454630E+0
6.10131110E+2	8.17672200E-1	4.31244669E+0
6.09917134E+2	8.19289100E-1	4.32128714E+0
6.10506126E+2	8.20704000E-1	4.32914223E+0
6.10883510E+2	8.22130500E-1	4.33704547E+0
6.11825326E+2	8.23599700E-1	4.34492507E+0
6.10850009E+2	8.25298200E-1	4.35270847E+0
6.10190431E+2	8.26790800E-1	4.36155612E+0
6.10137432E+2	8.28310600E-1	4.36946058E+0
6.09702062E+2	8.29760500E-1	4.37733449E+0
6.08553026E+2	8.31478400E-1	4.38522298E+0
6.09152942E+2	8.32955500E-1	4.39411638E+0
6.09245430E+2	8.34502400E-1	4.40197334E+0
6.09551759E+2	8.36014400E-1	4.40982199E+0
6.09898884E+2	8.37561400E-1	4.41735148E+0
6.09872617E+2	8.39123900E-1	4.42619390E+0
6.10419027E+2	8.40554300E-1	4.43403982E+0
6.09283633E+2	8.42202300E-1	4.44192742E+0
6.09881477E+2	8.43531600E-1	4.44978268E+0
6.09120855E+2	8.45253600E-1	4.45772573E+0
6.09347573E+2	8.46788800E-1	4.46651569E+0
6.09092363E+2	8.48242600E-1	4.47438433E+0
6.09945411E+2	8.49801200E-1	4.48215552E+0
6.09470180E+2	8.51507600E-1	4.49005734E+0
6.09873186E+2	8.52864100E-1	4.49894269E+0
6.09886334E+2	8.54473200E-1	4.50681767E+0
6.09531599E+2	8.55814200E-1	4.51469154E+0
6.09185645E+2	8.57384500E-1	4.52248313E+0
6.08177301E+2	8.58966400E-1	4.53031947E+0
6.09284417E+2	8.60633900E-1	4.53907065E+0
6.10851815E+2	8.61916600E-1	4.54695141E+0
6.11277110E+2	8.63541300E-1	4.55480046E+0
6.10789316E+2	8.65263300E-1	4.56264964E+0
6.09636721E+2	8.66662500E-1	4.57151710E+0
6.10010857E+2	8.68256100E-1	4.57940041E+0
6.10959878E+2	8.69772100E-1	4.58723094E+0
6.10223256E+2	8.71315100E-1	4.59512829E+0
6.10389592E+2	8.72807600E-1	4.60384250E+0
6.09816694E+2	8.74257500E-1	4.61171655E+0
6.09518650E+2	8.75730600E-1	4.61959777E+0
6.09905310E+2	8.77227000E-1	4.62740755E+0
6.11008734E+2	8.79053900E-1	4.63524109E+0
6.10773910E+2	8.80445400E-1	4.64412272E+0
6.09814442E+2	8.81887400E-1	4.65198993E+0
6.10352713E+2	8.83484900E-1	4.65981340E+0
6.11320692E+2	8.85016300E-1	4.66741654E+0
6.10780383E+2	8.86695500E-1	4.67624859E+0
6.10959036E+2	8.88168600E-1	4.68408614E+0
6.10847860E+2	8.89509600E-1	4.69193882E+0
6.10481823E+2	8.91320900E-1	4.69985767E+0
6.10370558E+2	8.92809600E-1	4.70871659E+0
6.11530133E+2	8.94232200E-1	4.71653371E+0
6.10894761E+2	8.95802400E-1	4.72439720E+0
6.10325818E+2	8.97271700E-1	4.73215279E+0
6.10612154E+2	8.98857500E-1	4.74004146E+0
6.12757314E+2	9.00287900E-1	4.74887793E+0
6.10775158E+2	9.01792100E-1	4.75669157E+0
6.11472470E+2	9.03265300E-1	4.76458462E+0
6.11275760E+2	9.05193100E-1	4.77239959E+0
6.10268806E+2	9.06487600E-1	4.78130690E+0
6.09890566E+2	9.08030600E-1	4.78916418E+0
6.09237022E+2	9.09659200E-1	4.79704838E+0
6.09333608E+2	9.10996200E-1	4.80491768E+0
6.09725627E+2	9.12656000E-1	4.81275368E+0
6.08787367E+2	9.14315700E-1	4.82150295E+0
6.09535831E+2	9.15621700E-1	4.82936997E+0
6.10104452E+2	9.17153200E-1	4.83715574E+0
6.09562938E+2	9.18816700E-1	4.84508430E+0
6.10522001E+2	9.20309300E-1	4.85384243E+0
6.10280784E+2	9.21790200E-1	4.86168695E+0
6.10655837E+2	9.23364400E-1	4.86953829E+0
6.10816224E+2	9.25027900E-1	4.87738805E+0
6.11223687E+2	9.26571000E-1	4.88620400E+0
6.11303387E+2	9.28094700E-1	4.89401875E+0
6.11000480E+2	9.29645500E-1	4.90187872E+0
6.10512146E+2	9.30971000E-1	4.90972445E+0
6.09717081E+2	9.32580200E-1	4.91723820E+0
6.10333647E+2	9.34080500E-1	4.92610848E+0
6.09823204E+2	9.35658600E-1	4.93392631E+0
6.09683390E+2	9.37069500E-1	4.94181534E+0
6.10398668E+2	9.38744700E-1	4.94972722E+0
6.11227238E+2	9.40287900E-1	4.95846665E+0
6.10454278E+2	9.41722100E-1	4.96625649E+0
6.09960064E+2	9.43362300E-1	4.97410867E+0
6.10335422E+2	9.44753900E-1	4.98193702E+0
6.10783591E+2	9.46374700E-1	4.98979732E+0
6.10376623E+2	9.47863400E-1	4.99861081E+0
6.10372751E+2	9.49332600E-1	5.00646652E+0
6.09150271E+2	9.50879700E-1	5.01432124E+0
6.09354115E+2	9.52554900E-1	5.02222225E+0
6.08892122E+2	9.54062900E-1	5.03097568E+0
6.08748076E+2	9.55485600E-1	5.03886739E+0
6.08719798E+2	9.57017000E-1	5.04652089E+0
6.09265589E+2	9.58645600E-1	5.05440567E+0
6.10649586E+2	9.60196500E-1	5.06323498E+0
6.11092667E+2	9.61836700E-1	5.07108470E+0
6.10409764E+2	9.63173800E-1	5.07893026E+0
6.10609375E+2	9.65024000E-1	5.08673526E+0
6.11190559E+2	9.66279400E-1	5.09555187E+0
6.10438537E+2	9.68020700E-1	5.10329946E+0
6.10677053E+2	9.69474400E-1	5.11212676E+0
6.09606121E+2	9.71161400E-1	5.12002118E+0
6.09577618E+2	9.72475100E-1	5.12790703E+0
6.09470900E+2	9.74006600E-1	5.13569951E+0
6.09179206E+2	9.75705100E-1	5.14355902E+0
6.10200903E+2	9.77131700E-1	5.15231924E+0
6.09982650E+2	9.78628100E-1	5.16015479E+0
6.09422270E+2	9.80105100E-1	5.16770753E+0
6.09205998E+2	9.80089600E-1	5.17556306E+0
6.08959151E+2	9.80245000E-1	5.17548409E+0
6.09400206E+2	9.80058500E-1	5.17545726E+0
6.09933253E+2	9.80054600E-1	5.17541702E+0
6.10388222E+2	9.80112800E-1	5.17538925E+0
6.10419832E+2	9.80077800E-1	5.17536112E+0
6.10032266E+2	9.80112800E-1	5.17541974E+0
6.10073658E+2	9.80186700E-1	5.17539725E+0
6.10272099E+2	9.80054600E-1	5.17537342E+0
6.10888359E+2	9.80210000E-1	5.17535633E+0
6.10717251E+2	9.80194500E-1	5.17537538E+0
6.09754226E+2	9.80178900E-1	5.17532382E+0
6.09232661E+2	9.80093400E-1	5.17529601E+0
6.09815645E+2	9.80167300E-1	5.17529386E+0
6.10456266E+2	9.80202300E-1	5.17528335E+0
6.10673393E+2	9.80058500E-1	5.17521583E+0
6.09986753E+2	9.80101200E-1	5.17525500E+0
6.09109508E+2	9.80031300E-1	5.17523899E+0
6.09346853E+2	9.80147800E-1	5.17524333E+0
6.09933485E+2	9.80109000E-1	5.17527826E+0
6.09200691E+2	9.80136200E-1	5.17527119E+0
6.08563582E+2	9.80217800E-1	5.17523644E+0
6.08105597E+2	9.80109000E-1	5.17528308E+0
6.09049080E+2	9.80124600E-1	5.17524722E+0
6.08833168E+2	9.80039000E-1	5.17525632E+0
6.09712620E+2	9.80089600E-1	5.17529550E+0
6.10230898E+2	9.80175100E-1	5.17529483E+0
6.09931548E+2	9.80202300E-1	5.17527801E+0
6.10041238E+2	9.80202300E-1	5.17530158E+0
6.09715186E+2	9.80109000E-1	5.17528271E+0
