# Begin of measurement: 19.07.2019 14:46:54
# R-Sample[Ohm]	I-Coil[A]	U-Magnetometer[V]
# Kei2000	HP E3631A +6V : I	Kei2000
5.81992069E+2	-1.81012200E-2	-1.79028029E-1
5.81553581E+2	-1.80934500E-2	-1.79017207E-1
5.81864999E+2	-1.81206500E-2	-1.78979913E-1
5.81713703E+2	-1.79029900E-2	-1.79036615E-1
5.81189571E+2	-1.81206500E-2	-1.79079141E-1
5.81857344E+2	-1.80662400E-2	-1.79060002E-1
5.82387059E+2	-1.64803900E-2	-1.79060449E-1
5.82708113E+2	-1.50927700E-2	-1.71734816E-1
5.84081213E+2	-1.34758300E-2	-1.64445538E-1
5.83962427E+2	-1.23097600E-2	-1.57192303E-1
5.83295014E+2	-1.08366300E-2	-1.50787455E-1
5.82275028E+2	-9.34795700E-3	-1.43460972E-1
5.82382601E+2	-7.90203600E-3	-1.36258983E-1
5.82425456E+2	-6.39781200E-3	-1.28872891E-1
5.82372130E+2	-4.88970100E-3	-1.21577129E-1
5.81945980E+2	-3.25332200E-3	-1.14195732E-1
5.81868621E+2	-1.91234700E-3	-1.06946298E-1
5.82697371E+2	-2.48760600E-4	-9.96628335E-2
5.82027166E+2	1.15829100E-3	-9.23274069E-2
5.81806739E+2	2.30492300E-3	-8.49997611E-2
5.81630898E+2	3.91409300E-3	-7.89985362E-2
5.83288668E+2	5.27450200E-3	-7.16989732E-2
5.83130798E+2	6.94974900E-3	-6.43761570E-2
5.82194835E+2	8.22464800E-3	-5.70802609E-2
5.82087667E+2	9.95431100E-3	-4.97230119E-2
5.81813399E+2	1.13069500E-2	-4.24375350E-2
5.82791733E+2	1.27178900E-2	-3.51114544E-2
5.84012276E+2	1.43348300E-2	-2.77436073E-2
5.83870346E+2	1.54931200E-2	-2.05909872E-2
5.82232704E+2	1.70362200E-2	-1.41851999E-2
5.82115000E+2	1.84627000E-2	-6.86783921E-3
5.83201132E+2	1.99669200E-2	4.68662986E-4
5.83014518E+2	2.14011900E-2	7.78552172E-3
5.82717499E+2	2.30220200E-2	1.51209385E-2
5.83111588E+2	2.44757100E-2	2.24138284E-2
5.82463988E+2	2.59721600E-2	2.97167351E-2
5.82388566E+2	2.73792100E-2	3.67109530E-2
5.82401354E+2	2.88989900E-2	4.40666692E-2
5.82046529E+2	3.02632800E-2	5.13921131E-2
5.81610228E+2	3.18297000E-2	5.77393050E-2
5.81681148E+2	3.32872700E-2	6.50417641E-2
5.81301558E+2	3.46904400E-2	7.23142174E-2
5.82096041E+2	3.61247000E-2	7.96253965E-2
5.81835010E+2	3.75706300E-2	8.69426572E-2
5.80798274E+2	3.92186600E-2	9.41827346E-2
5.81821457E+2	4.05985100E-2	1.01503081E-1
5.82545065E+2	4.20949600E-2	1.08877491E-1
5.81786830E+2	4.36652600E-2	1.16162734E-1
5.82462483E+2	4.52161300E-2	1.23475523E-1
5.81979147E+2	4.64132800E-2	1.30808972E-1
5.81280079E+2	4.78825300E-2	1.37190999E-1
5.83024798E+2	4.93129000E-2	1.44516845E-1
5.82536644E+2	5.08171300E-2	1.51827890E-1
5.83696263E+2	5.23679900E-2	1.59141491E-1
5.83910959E+2	5.38061400E-2	1.66404915E-1
5.82280748E+2	5.54230900E-2	1.73674418E-1
5.81562813E+2	5.69117600E-2	1.81062780E-1
5.82214961E+2	5.82177500E-2	1.88367565E-1
5.82286961E+2	5.97219800E-2	1.95724089E-1
5.83737825E+2	6.12961700E-2	2.02985319E-1
5.82922584E+2	6.25360900E-2	2.10249455E-1
5.82576134E+2	6.41996800E-2	2.16646239E-1
5.82915469E+2	6.55717400E-2	2.23988900E-1
5.83060056E+2	6.72508700E-2	2.31337375E-1
5.82187752E+2	6.85490900E-2	2.38598157E-1
5.82504126E+2	6.99444900E-2	2.45873875E-1
5.81233242E+2	7.14681400E-2	2.53228208E-1
5.81715317E+2	7.30267800E-2	2.60518236E-1
5.81453611E+2	7.44416100E-2	2.67833932E-1
5.81783085E+2	7.60274600E-2	2.74827524E-1
5.81477361E+2	7.74073000E-2	2.82131593E-1
5.82622411E+2	7.89037500E-2	2.89402258E-1
5.83069544E+2	8.01708800E-2	2.96694477E-1
5.82740251E+2	8.18072600E-2	3.03148233E-1
5.82653030E+2	8.33192500E-2	3.10418898E-1
5.82061131E+2	8.46524500E-2	3.17705706E-1
5.81688880E+2	8.61838800E-2	3.25058697E-1
5.81754507E+2	8.77813900E-2	3.32303157E-1
5.81803678E+2	8.91029500E-2	3.39600250E-1
5.82179846E+2	9.06693600E-2	3.46927573E-1
5.82776068E+2	9.20142200E-2	3.54212101E-1
5.83355450E+2	9.36933400E-2	3.61510804E-1
5.82977436E+2	9.52403300E-2	3.68843225E-1
5.82633128E+2	9.65968500E-2	3.76179759E-1
5.82864704E+2	9.81865800E-2	3.83539682E-1
5.83186478E+2	9.95003500E-2	3.90731424E-1
5.82583501E+2	1.00748000E-1	3.98059751E-1
5.82351920E+2	1.02481600E-1	4.04471517E-1
5.82484889E+2	1.03810900E-1	4.11870121E-1
5.81409354E+2	1.05451200E-1	4.19186935E-1
5.82173584E+2	1.06799900E-1	4.26586389E-1
5.83210365E+2	1.08249700E-1	4.33936356E-1
5.83060060E+2	1.09711200E-1	4.41208765E-1
5.82242117E+2	1.11242600E-1	4.48525624E-1
5.83561768E+2	1.12781800E-1	4.55961835E-1
5.82958251E+2	1.14188900E-1	4.63188140E-1
5.81938623E+2	1.15852500E-1	4.77479049E-1
5.82714509E+2	1.17197300E-1	4.78303561E-1
5.81842397E+2	1.18639400E-1	4.85829432E-1
5.81870179E+2	1.20205800E-1	4.93893976E-1
5.82153634E+2	1.21760500E-1	5.02205946E-1
5.82229732E+2	1.23109300E-1	5.10825074E-1
5.81578800E+2	1.24605700E-1	5.22624940E-1
5.81803222E+2	1.26043900E-1	5.48070544E-1
5.81991441E+2	1.27618100E-1	5.68891049E-1
5.82380352E+2	1.29048500E-1	5.94430695E-1
5.82709556E+2	1.30517700E-1	6.04889087E-1
5.82068575E+2	1.32173500E-1	6.25438511E-1
5.82014475E+2	1.33654400E-1	6.36145400E-1
5.81187872E+2	1.35158600E-1	6.44270940E-1
5.81684446E+2	1.36596800E-1	6.52468699E-1
5.81572145E+2	1.37999900E-1	6.60601304E-1
5.80878571E+2	1.39418600E-1	6.68768924E-1
5.81104254E+2	1.40779100E-1	6.76961093E-1
5.81349254E+2	1.42294900E-1	6.84071220E-1
5.81492490E+2	1.43935200E-1	6.92262987E-1
5.81513203E+2	1.45237300E-1	7.00434050E-1
5.81606997E+2	1.46912600E-1	7.08517555E-1
5.81357810E+2	1.48199100E-1	7.16698366E-1
5.81354117E+2	1.49726700E-1	7.24858249E-1
5.81976051E+2	1.51199800E-1	7.33062224E-1
5.82441139E+2	1.52898400E-1	7.41190447E-1
5.83003899E+2	1.54344300E-1	7.49382393E-1
5.82150609E+2	1.55801900E-1	7.57482224E-1
5.81919658E+2	1.57259500E-1	7.65634639E-1
5.82829549E+2	1.58701500E-1	7.73697485E-1
5.82904071E+2	1.60135700E-1	7.81875882E-1
5.83983810E+2	1.61647700E-1	7.90017610E-1
5.82771147E+2	1.63268600E-1	7.98159558E-1
5.82837204E+2	1.64656200E-1	8.06394713E-1
5.82749218E+2	1.66032100E-1	8.14552003E-1
5.82381155E+2	1.67419800E-1	8.21667631E-1
5.82721706E+2	1.68780200E-1	8.29854123E-1
5.82401778E+2	1.70455400E-1	8.37654642E-1
5.81701560E+2	1.71990700E-1	8.45840016E-1
5.81790536E+2	1.73483300E-1	8.53983489E-1
5.81052159E+2	1.75010900E-1	8.62161394E-1
5.80770956E+2	1.76382900E-1	8.70282641E-1
5.81241549E+2	1.77766700E-1	8.78451602E-1
5.81873118E+2	1.79340800E-1	8.86626735E-1
5.81433577E+2	1.80895600E-1	8.94765377E-1
5.82275475E+2	1.82427000E-1	9.02846378E-1
5.81980133E+2	1.83923500E-1	9.10962260E-1
5.81535566E+2	1.85248900E-1	9.19027162E-1
5.82306860E+2	1.86690900E-1	9.27222740E-1
5.81897821E+2	1.88210700E-1	9.35393913E-1
5.81364536E+2	1.89656600E-1	9.43532242E-1
5.82765270E+2	1.91005400E-1	9.51681840E-1
5.82037564E+2	1.92649500E-1	9.58815622E-1
5.81176214E+2	1.94134300E-1	9.66757147E-1
5.82065392E+2	1.95549100E-1	9.74981362E-1
5.82966818E+2	1.97135000E-1	9.83018583E-1
5.83777059E+2	1.98429300E-1	9.91164782E-1
5.83322698E+2	2.00034600E-1	9.99403457E-1
5.84384741E+2	2.01426100E-1	1.00752444E+0
5.83224896E+2	2.03050800E-1	1.01563669E+0
5.82523847E+2	2.04520100E-1	1.02377551E+0
5.83143845E+2	2.05884400E-1	1.03184453E+0
5.82519570E+2	2.07462500E-1	1.03992853E+0
5.82022106E+2	2.08943300E-1	1.04808027E+0
5.82057585E+2	2.10513700E-1	1.05624414E+0
5.82650880E+2	2.11874100E-1	1.06440421E+0
5.82098921E+2	2.13358900E-1	1.07258310E+0
5.82276018E+2	2.14987500E-1	1.08070095E+0
5.82878545E+2	2.16013600E-1	1.08883498E+0
5.82765720E+2	2.17611100E-1	1.09560668E+0
5.82788297E+2	2.19204700E-1	1.10381323E+0
5.81772994E+2	2.20510700E-1	1.11195384E+0
5.83122049E+2	2.22011100E-1	1.12012200E+0
5.83297705E+2	2.23492000E-1	1.12819303E+0
5.84228130E+2	2.25023400E-1	1.13632979E+0
5.83763570E+2	2.26477100E-1	1.14454962E+0
5.83002813E+2	2.27985200E-1	1.15262423E+0
5.82024073E+2	2.29606000E-1	1.16071529E+0
5.82156322E+2	2.31086900E-1	1.16883032E+0
5.82882227E+2	2.32466800E-1	1.17693516E+0
5.81989041E+2	2.34079800E-1	1.18507415E+0
5.82375341E+2	2.35405300E-1	1.19321321E+0
5.82883648E+2	2.37033900E-1	1.20135275E+0
5.82738831E+2	2.38390400E-1	1.20945727E+0
5.84016200E+2	2.39700300E-1	1.21758303E+0
5.84449690E+2	2.41173400E-1	1.22467076E+0
5.82917594E+2	2.42697100E-1	1.23282818E+0
5.83146924E+2	2.44228500E-1	1.24097268E+0
5.83176362E+2	2.45643300E-1	1.24910944E+0
5.84210506E+2	2.47170900E-1	1.25715122E+0
5.82625502E+2	2.48780000E-1	1.26533060E+0
5.82292110E+2	2.50237600E-1	1.27347706E+0
5.83326371E+2	2.51656300E-1	1.28162559E+0
5.82156890E+2	2.53238300E-1	1.28968342E+0
5.82702410E+2	2.54629800E-1	1.29780990E+0
5.82154548E+2	2.56254500E-1	1.30591805E+0
5.82098983E+2	2.57607100E-1	1.31405165E+0
5.82011898E+2	2.59107500E-1	1.32220901E+0
5.82019148E+2	2.60530100E-1	1.33030097E+0
5.81578408E+2	2.62252000E-1	1.33838251E+0
5.81541170E+2	2.63635700E-1	1.34651623E+0
5.82426153E+2	2.64852300E-1	1.35426229E+0
5.82836943E+2	2.66508100E-1	1.36143726E+0
5.82918355E+2	2.67895700E-1	1.36955332E+0
5.83152548E+2	2.69376600E-1	1.37762779E+0
5.82888141E+2	2.70729300E-1	1.38574242E+0
5.82921417E+2	2.72404500E-1	1.39384623E+0
5.82497341E+2	2.73788200E-1	1.40201492E+0
5.83348898E+2	2.75245800E-1	1.41009494E+0
5.83794545E+2	2.76703400E-1	1.41821288E+0
5.84268605E+2	2.78285400E-1	1.42623445E+0
5.83158832E+2	2.79626300E-1	1.43438740E+0
5.83814313E+2	2.81146100E-1	1.44245578E+0
5.83406669E+2	2.82724200E-1	1.45058280E+0
5.83222303E+2	2.84162400E-1	1.46633630E+0
5.82550162E+2	2.85752100E-1	1.46686371E+0
5.83534575E+2	2.87170800E-1	1.47499064E+0
5.82968657E+2	2.88632200E-1	1.48307742E+0
5.82691821E+2	2.90171500E-1	1.49097645E+0
5.82276703E+2	2.91613500E-1	1.49915843E+0
5.82200215E+2	2.93187700E-1	1.50718997E+0
5.82074695E+2	2.94598600E-1	1.51530921E+0
5.82581221E+2	2.96184500E-1	1.52345321E+0
5.82690370E+2	2.97556500E-1	1.53152857E+0
5.82757193E+2	2.99091900E-1	1.53963332E+0
5.83362827E+2	3.00553300E-1	1.54778976E+0
5.82489993E+2	3.02185800E-1	1.55578875E+0
5.82511697E+2	3.03643400E-1	1.56389269E+0
5.81965816E+2	3.04988300E-1	1.57197856E+0
5.81633055E+2	3.06449700E-1	1.58008715E+0
5.82740757E+2	3.07825700E-1	1.58713740E+0
5.81824111E+2	3.09500900E-1	1.59526223E+0
5.81764628E+2	3.10853600E-1	1.60341692E+0
5.81120585E+2	3.12237300E-1	1.61149101E+0
5.81114056E+2	3.13869800E-1	1.61925437E+0
5.81852434E+2	3.15183500E-1	1.62734262E+0
5.82237924E+2	3.16816100E-1	1.63544759E+0
5.82018544E+2	3.18230900E-1	1.64364329E+0
5.82528313E+2	3.19676800E-1	1.65176414E+0
5.82601156E+2	3.21196600E-1	1.65983655E+0
5.82868838E+2	3.22867900E-1	1.66798803E+0
5.83048908E+2	3.24177800E-1	1.67608687E+0
5.83246718E+2	3.25748100E-1	1.68408331E+0
5.82845424E+2	3.27116300E-1	1.69218072E+0
5.83360370E+2	3.28706000E-1	1.70025703E+0
5.82220562E+2	3.30206400E-1	1.70836531E+0
5.82354928E+2	3.31438500E-1	1.71643956E+0
5.83754280E+2	3.33024400E-1	1.72350568E+0
5.83019279E+2	3.34431400E-1	1.73161029E+0
5.82898827E+2	3.36013400E-1	1.73965279E+0
5.83276482E+2	3.37401000E-1	1.74779009E+0
5.83478660E+2	3.38893600E-1	1.75591429E+0
5.83875316E+2	3.40549400E-1	1.76389280E+0
5.82431791E+2	3.41859200E-1	1.77200036E+0
5.82275407E+2	3.43386800E-1	1.78009925E+0
5.82288105E+2	3.44863800E-1	1.78822072E+0
5.81485967E+2	3.46457400E-1	1.79626112E+0
5.82531575E+2	3.47833400E-1	1.80435290E+0
5.82043750E+2	3.49504700E-1	1.81234889E+0
5.82007930E+2	3.50834100E-1	1.82045480E+0
5.83184301E+2	3.52396600E-1	1.82848987E+0
5.82490411E+2	3.53593800E-1	1.83653921E+0
5.81947727E+2	3.55179600E-1	1.84362533E+0
5.82522021E+2	3.56753800E-1	1.85173007E+0
5.82558224E+2	3.58223000E-1	1.85973268E+0
5.82808898E+2	3.59657300E-1	1.86785983E+0
5.84052001E+2	3.60994400E-1	1.87556458E+0
5.82895488E+2	3.62463600E-1	1.88365229E+0
5.83511883E+2	3.63929000E-1	1.89176016E+0
5.82681782E+2	3.65472100E-1	1.89985534E+0
5.82344969E+2	3.66945200E-1	1.90788912E+0
5.81788686E+2	3.68430000E-1	1.91596180E+0
5.82500677E+2	3.69973100E-1	1.92402818E+0
5.82389007E+2	3.71446200E-1	1.93210623E+0
5.82267294E+2	3.72907700E-1	1.94006721E+0
5.84260933E+2	3.74373100E-1	1.94819494E+0
5.83471898E+2	3.75958900E-1	1.95624665E+0
5.83414945E+2	3.77385400E-1	1.96430203E+0
5.82949412E+2	3.79064500E-1	1.97239497E+0
5.83746642E+2	3.80362700E-1	1.98044274E+0
5.83008760E+2	3.81855300E-1	1.98755837E+0
5.82519074E+2	3.83176800E-1	1.99557972E+0
5.82627503E+2	3.84653800E-1	2.00316775E+0
5.81982379E+2	3.86177500E-1	2.01122321E+0
5.82324476E+2	3.87740000E-1	2.01928852E+0
5.82537461E+2	3.89061600E-1	2.02734233E+0
5.82157645E+2	3.90616300E-1	2.03538957E+0
5.81729199E+2	3.92190500E-1	2.04346198E+0
5.81609558E+2	3.93659800E-1	2.05149460E+0
5.82052684E+2	3.95004600E-1	2.05957104E+0
5.82010312E+2	3.96450500E-1	2.06755965E+0
5.82143596E+2	3.98137500E-1	2.07558579E+0
5.82778859E+2	3.99567800E-1	2.08370837E+0
5.83425334E+2	4.01002100E-1	2.09174238E+0
5.84307173E+2	4.02510200E-1	2.09974047E+0
5.84271240E+2	4.03878400E-1	2.10785269E+0
5.83507606E+2	4.05367000E-1	2.11484713E+0
5.83783336E+2	4.06816900E-1	2.12288694E+0
5.83064815E+2	4.08189000E-1	2.13060940E+0
5.82954676E+2	4.09825300E-1	2.13868445E+0
5.83170542E+2	4.11209100E-1	2.14673486E+0
5.83498936E+2	4.12643300E-1	2.15476677E+0
5.83375557E+2	4.14279700E-1	2.16277904E+0
5.83262353E+2	4.15667300E-1	2.17081286E+0
5.83044370E+2	4.17241500E-1	2.17887915E+0
5.82437296E+2	4.18617400E-1	2.18691458E+0
5.82372905E+2	4.20242200E-1	2.19487784E+0
5.82215710E+2	4.21734700E-1	2.20289177E+0
5.82314007E+2	4.23079600E-1	2.21095466E+0
5.81625541E+2	4.24579900E-1	2.21897565E+0
5.82090916E+2	4.25909200E-1	2.22706175E+0
5.81368568E+2	4.27328000E-1	2.23406169E+0
5.80924272E+2	4.28894400E-1	2.24209869E+0
5.81553321E+2	4.30332500E-1	2.25012017E+0
5.82062278E+2	4.31918300E-1	2.25818078E+0
5.81874355E+2	4.33461500E-1	2.26626357E+0
5.81120607E+2	4.34818000E-1	2.27425321E+0
5.81706878E+2	4.36322200E-1	2.28225913E+0
5.82825297E+2	4.37822500E-1	2.29032699E+0
5.83376896E+2	4.39307400E-1	2.29835215E+0
5.83466413E+2	4.40865900E-1	2.30640543E+0
5.83045306E+2	4.42428500E-1	2.31442798E+0
5.82865912E+2	4.43812200E-1	2.32238516E+0
5.81929950E+2	4.45215400E-1	2.33040861E+0
5.81846962E+2	4.46770100E-1	2.33842557E+0
5.82434539E+2	4.48014000E-1	2.34648787E+0
5.83118927E+2	4.49518200E-1	2.35349778E+0
5.82961283E+2	4.51049600E-1	2.36147799E+0
5.83130086E+2	4.52530500E-1	2.36950130E+0
5.82451593E+2	4.53980400E-1	2.37755874E+0
5.82382924E+2	4.55457400E-1	2.38525235E+0
5.82557275E+2	4.56996500E-1	2.39329641E+0
5.82209654E+2	4.58399700E-1	2.40127877E+0
5.81587811E+2	4.59907800E-1	2.40929689E+0
5.81463681E+2	4.61571400E-1	2.41733398E+0
5.81434029E+2	4.63036700E-1	2.42536980E+0
5.81466359E+2	4.64603100E-1	2.43336977E+0
5.81576184E+2	4.65905300E-1	2.44138199E+0
5.82268272E+2	4.67374500E-1	2.44929181E+0
5.82929020E+2	4.68832100E-1	2.45729916E+0
5.82760839E+2	4.70363500E-1	2.46530026E+0
5.82705551E+2	4.71828900E-1	2.47339018E+0
5.83020886E+2	4.73177600E-1	2.48040796E+0
5.82749724E+2	4.74639100E-1	2.48837936E+0
5.82728336E+2	4.76123900E-1	2.49637616E+0
5.82999407E+2	4.77628100E-1	2.50441398E+0
5.82800696E+2	4.79093500E-1	2.51241320E+0
5.83291312E+2	4.80613200E-1	2.52034476E+0
5.83156999E+2	4.82094100E-1	2.52829460E+0
5.83687930E+2	4.83590600E-1	2.53636635E+0
5.83141825E+2	4.85087100E-1	2.54438595E+0
5.83378179E+2	4.86696200E-1	2.55240345E+0
5.84373669E+2	4.88052700E-1	2.56042203E+0
5.83428656E+2	4.89529800E-1	2.56843135E+0
5.83909020E+2	4.91014500E-1	2.57645171E+0
5.83363410E+2	4.92732600E-1	2.58439391E+0
5.83177622E+2	4.93991900E-1	2.59238940E+0
5.83604673E+2	4.95461100E-1	2.59935137E+0
5.83159656E+2	4.96829300E-1	2.60735585E+0
5.83746107E+2	4.98321900E-1	2.61532703E+0
5.83256647E+2	4.99787200E-1	2.62337699E+0
5.82971032E+2	5.01447000E-1	2.63135608E+0
5.83162268E+2	5.02896700E-1	2.63935185E+0
5.82567982E+2	5.04237700E-1	2.64700311E+0
5.81888006E+2	5.05687500E-1	2.65506546E+0
5.82877688E+2	5.07312300E-1	2.66304733E+0
5.82549156E+2	5.08699900E-1	2.67103084E+0
5.83017806E+2	5.10149700E-1	2.67899934E+0
5.83634156E+2	5.11681100E-1	2.68704582E+0
5.83767306E+2	5.13181400E-1	2.69501900E+0
5.83935802E+2	5.14779000E-1	2.70298503E+0
5.84826647E+2	5.16116000E-1	2.71088273E+0
5.82924867E+2	5.17371600E-1	2.71889988E+0
5.82430879E+2	5.18938000E-1	2.72588359E+0
5.82548989E+2	5.20492700E-1	2.73388620E+0
5.83126030E+2	5.21958100E-1	2.74187029E+0
5.83496569E+2	5.23602200E-1	2.74985229E+0
5.83314789E+2	5.25032600E-1	2.75787277E+0
5.82169669E+2	5.26404600E-1	2.76585321E+0
5.82249370E+2	5.27912800E-1	2.77385717E+0
5.82594963E+2	5.29490900E-1	2.78186192E+0
5.83468787E+2	5.30870700E-1	2.78979584E+0
5.82467172E+2	5.32394300E-1	2.79778674E+0
5.83025121E+2	5.33855800E-1	2.80583482E+0
5.83618326E+2	5.35313400E-1	2.81379218E+0
5.82787016E+2	5.36887600E-1	2.82176407E+0
5.82605022E+2	5.38364600E-1	2.82978608E+0
5.83096103E+2	5.39919300E-1	2.83764711E+0
5.82876769E+2	5.41435200E-1	2.84562204E+0
5.83089439E+2	5.42768400E-1	2.85358763E+0
5.83066519E+2	5.44140500E-1	2.86054486E+0
5.82504744E+2	5.45757400E-1	2.86856129E+0
5.82587722E+2	5.47125600E-1	2.87652960E+0
5.82480398E+2	5.48606500E-1	2.88451683E+0
5.83750158E+2	5.49951400E-1	2.89245790E+0
5.83146505E+2	5.51463400E-1	2.90011524E+0
5.82725533E+2	5.53173600E-1	2.90812165E+0
5.82699507E+2	5.54670000E-1	2.91612001E+0
5.83372016E+2	5.56007100E-1	2.92413492E+0
5.83420259E+2	5.57643600E-1	2.93208516E+0
5.82949711E+2	5.59038900E-1	2.94009519E+0
5.82809041E+2	5.60566500E-1	2.94805044E+0
5.82175355E+2	5.61934700E-1	2.95607608E+0
5.81518298E+2	5.63431100E-1	2.96394878E+0
5.82653063E+2	5.65059700E-1	2.97188723E+0
5.82581467E+2	5.66307400E-1	2.97983985E+0
5.82315349E+2	5.67799900E-1	2.98682856E+0
5.82284459E+2	5.69280900E-1	2.99477881E+0
5.81907300E+2	5.70746200E-1	3.00276053E+0
5.81408654E+2	5.72238700E-1	3.01069920E+0
5.81856463E+2	5.73700200E-1	3.01863000E+0
5.82898643E+2	5.75293800E-1	3.02648849E+0
5.83034134E+2	5.76782500E-1	3.03440720E+0
5.82226682E+2	5.78076900E-1	3.04239515E+0
5.82506039E+2	5.79717200E-1	3.05037956E+0
5.82603346E+2	5.81310700E-1	3.05832366E+0
5.82396080E+2	5.82624500E-1	3.06635278E+0
5.82523708E+2	5.84175400E-1	3.07427204E+0
5.82491980E+2	5.85745700E-1	3.08222148E+0
5.82058941E+2	5.87059500E-1	3.09014096E+0
5.83375981E+2	5.88672500E-1	3.09809286E+0
5.82403139E+2	5.90079500E-1	3.10605034E+0
5.82354238E+2	5.91556600E-1	3.11401606E+0
5.82246598E+2	5.92885900E-1	3.12198956E+0
5.81170853E+2	5.94510600E-1	3.12889237E+0
5.82218982E+2	5.95968200E-1	3.13684494E+0
5.82824391E+2	5.97270300E-1	3.14483801E+0
5.81745597E+2	5.98766800E-1	3.15245693E+0
5.82365550E+2	6.00251600E-1	3.16045574E+0
5.83390850E+2	6.01779100E-1	3.16840178E+0
5.83705562E+2	6.03252200E-1	3.17637448E+0
5.83081827E+2	6.04865300E-1	3.18432369E+0
5.82803235E+2	6.06225700E-1	3.19229791E+0
5.82941878E+2	6.07722200E-1	3.20024994E+0
5.83417514E+2	6.09160300E-1	3.20820457E+0
5.83365642E+2	6.10691700E-1	3.21608872E+0
5.82632473E+2	6.12347600E-1	3.22406404E+0
5.82305392E+2	6.13844000E-1	3.23192774E+0
5.82860594E+2	6.15010000E-1	3.23990687E+0
5.83770305E+2	6.16619300E-1	3.24692425E+0
5.83884948E+2	6.18142900E-1	3.25482562E+0
5.83503962E+2	6.19464400E-1	3.26280529E+0
5.83222939E+2	6.20914200E-1	3.27076667E+0
5.82351096E+2	6.22605000E-1	3.27868485E+0
5.81479299E+2	6.23969300E-1	3.28664359E+0
5.81438593E+2	6.25465800E-1	3.29464750E+0
5.81737537E+2	6.27137100E-1	3.30260194E+0
5.81579937E+2	6.28435300E-1	3.31051014E+0
5.81943768E+2	6.29978400E-1	3.31842291E+0
5.83187053E+2	6.31541000E-1	3.32635371E+0
5.83024480E+2	6.32893600E-1	3.33429116E+0
5.82313164E+2	6.34549400E-1	3.34219396E+0
5.82463019E+2	6.35898200E-1	3.35009895E+0
5.81890436E+2	6.37301300E-1	3.35805353E+0
5.82263272E+2	6.38836600E-1	3.36499954E+0
5.83269540E+2	6.40185400E-1	3.37293132E+0
5.83327135E+2	6.41740100E-1	3.38084449E+0
5.81938094E+2	6.43326000E-1	3.38878016E+0
5.80992315E+2	6.44585400E-1	3.39674753E+0
5.81079445E+2	6.46089600E-1	3.40432496E+0
5.81299185E+2	6.47547100E-1	3.41227976E+0
5.81867264E+2	6.49035800E-1	3.42022290E+0
5.83631057E+2	6.50691700E-1	3.42821496E+0
5.82557487E+2	6.52339700E-1	3.43612214E+0
5.82415602E+2	6.53863300E-1	3.44507259E+0
5.83016778E+2	6.55282100E-1	3.45303813E+0
5.83029746E+2	6.56693000E-1	3.46098717E+0
5.83389659E+2	6.58236100E-1	3.46884239E+0
5.82582973E+2	6.59903600E-1	3.47682599E+0
5.82801181E+2	6.61326200E-1	3.48569345E+0
5.83125342E+2	6.62888700E-1	3.49363882E+0
5.82928342E+2	6.64552300E-1	3.50155777E+0
5.83188427E+2	6.66200400E-1	3.50949598E+0
5.83020155E+2	6.67638500E-1	3.51842242E+0
5.83154585E+2	6.69189400E-1	3.52634812E+0
5.83278639E+2	6.70693600E-1	3.53413554E+0
5.82522295E+2	6.71976200E-1	3.54203262E+0
5.82694259E+2	6.73830300E-1	3.54989732E+0
5.83086412E+2	6.75155700E-1	3.55879098E+0
5.82750094E+2	6.76978600E-1	3.56670831E+0
5.82990724E+2	6.78152500E-1	3.57565152E+0
5.82850120E+2	6.79948200E-1	3.58259342E+0
5.82492594E+2	6.81285300E-1	3.59150072E+0
5.83400504E+2	6.82812900E-1	3.59933154E+0
5.83300675E+2	6.84270400E-1	3.60727905E+0
5.82016462E+2	6.85786300E-1	3.61517563E+0
5.82323406E+2	6.87504300E-1	3.62310097E+0
5.82755040E+2	6.89066800E-1	3.63197513E+0
5.82686371E+2	6.90543900E-1	3.63993879E+0
5.82729734E+2	6.92106400E-1	3.64783618E+0
5.82350549E+2	6.93606800E-1	3.65565952E+0
5.81756938E+2	6.95146000E-1	3.66431318E+0
5.81158284E+2	6.96747400E-1	3.67226986E+0
5.81331103E+2	6.98057200E-1	3.68020562E+0
5.82371127E+2	6.99767500E-1	3.68811699E+0
5.82950599E+2	7.01248400E-1	3.69698065E+0
5.83402595E+2	7.02799200E-1	3.70493183E+0
5.82228927E+2	7.04151900E-1	3.71288060E+0
5.81717109E+2	7.05671600E-1	3.72073327E+0
5.82210450E+2	7.07350700E-1	3.72859982E+0
5.82127913E+2	7.08901600E-1	3.73756418E+0
5.82182533E+2	7.10495200E-1	3.74542060E+0
5.82551361E+2	7.11812900E-1	3.75335426E+0
5.83490070E+2	7.13367700E-1	3.76125625E+0
5.81975627E+2	7.15093400E-1	3.76920439E+0
5.82295329E+2	7.16628700E-1	3.77810699E+0
5.83053474E+2	7.18055200E-1	3.78601829E+0
5.83814996E+2	7.19485600E-1	3.79388679E+0
5.82812886E+2	7.21149200E-1	3.80175658E+0
5.82466797E+2	7.22735100E-1	3.81075117E+0
5.82689734E+2	7.24317000E-1	3.81866010E+0
5.82030787E+2	7.25817300E-1	3.82659952E+0
5.81264942E+2	7.27142800E-1	3.83444776E+0
5.82051590E+2	7.28938500E-1	3.84239233E+0
5.82068565E+2	7.30302800E-1	3.85112648E+0
5.82782312E+2	7.31880900E-1	3.85906782E+0
5.82197527E+2	7.33311200E-1	3.86700501E+0
5.81528379E+2	7.34963200E-1	3.87493066E+0
5.80985695E+2	7.36471300E-1	3.88388916E+0
5.82544852E+2	7.37963900E-1	3.89177125E+0
5.82660350E+2	7.39577000E-1	3.89964469E+0
5.82730774E+2	7.41158900E-1	3.90754485E+0
5.83521430E+2	7.42589200E-1	3.91613076E+0
5.82041140E+2	7.44019700E-1	3.92405073E+0
5.82484631E+2	7.45578300E-1	3.93194355E+0
5.83348953E+2	7.47168000E-1	3.93986522E+0
5.83461930E+2	7.48750000E-1	3.94779270E+0
5.83042849E+2	7.50238700E-1	3.95661245E+0
5.83182618E+2	7.51882800E-1	3.96453680E+0
5.82838315E+2	7.53348200E-1	3.97244755E+0
5.82767700E+2	7.54969000E-1	3.98019975E+0
5.82569800E+2	7.56523800E-1	3.98905075E+0
5.82355329E+2	7.58004600E-1	3.99699098E+0
5.82722176E+2	7.59384400E-1	4.00488421E+0
5.82593665E+2	7.61098600E-1	4.01276187E+0
5.83758443E+2	7.62517400E-1	4.02167530E+0
5.82895769E+2	7.63706700E-1	4.02958547E+0
5.82567781E+2	7.65374200E-1	4.03602885E+0
5.82669005E+2	7.66913400E-1	4.04392101E+0
5.82113759E+2	7.68456500E-1	4.05186007E+0
5.81484530E+2	7.69929600E-1	4.06077179E+0
5.82037983E+2	7.71546600E-1	4.06865098E+0
5.83073939E+2	7.73043000E-1	4.07650280E+0
5.82509597E+2	7.74722100E-1	4.08442536E+0
5.83383375E+2	7.76210800E-1	4.09339057E+0
5.84132964E+2	7.77633400E-1	4.10110909E+0
5.83368470E+2	7.79188200E-1	4.10898313E+0
5.82266983E+2	7.80560200E-1	4.11689554E+0
5.81588759E+2	7.82286000E-1	4.12476641E+0
5.82872926E+2	7.83716400E-1	4.13366901E+0
5.82540571E+2	7.85228400E-1	4.14822393E+0
5.82336277E+2	7.87012500E-1	4.14938065E+0
5.83290431E+2	7.88349500E-1	4.15829846E+0
5.83850405E+2	7.89954900E-1	4.16585635E+0
5.82845222E+2	7.91288000E-1	4.17374125E+0
5.82292362E+2	7.92831100E-1	4.18166726E+0
5.82267911E+2	7.94634600E-1	4.18961365E+0
5.82457886E+2	7.95932800E-1	4.19845173E+0
5.82250665E+2	7.97615900E-1	4.20638122E+0
5.82451537E+2	7.99100600E-1	4.21417777E+0
5.81839027E+2	8.00422200E-1	4.22209925E+0
5.82056785E+2	8.02109100E-1	4.22992178E+0
5.82452540E+2	8.03745600E-1	4.23885976E+0
5.82021618E+2	8.05137000E-1	4.24670200E+0
5.83008417E+2	8.06722800E-1	4.25456867E+0
5.83331542E+2	8.08335900E-1	4.26245304E+0
5.83628885E+2	8.09746800E-1	4.27127126E+0
5.83561477E+2	8.11422200E-1	4.27917088E+0
5.82996189E+2	8.12910700E-1	4.28699131E+0
5.82233046E+2	8.14341200E-1	4.29490895E+0
5.82156363E+2	8.15911400E-1	4.30274789E+0
5.82981195E+2	8.17602300E-1	4.31162052E+0
5.84343534E+2	8.19063800E-1	4.31956141E+0
5.83525052E+2	8.20587300E-1	4.32742607E+0
5.82506822E+2	8.22239300E-1	4.33524645E+0
5.83407482E+2	8.23541500E-1	4.34411028E+0
5.83518117E+2	8.25115600E-1	4.35192990E+0
5.82793293E+2	8.26542100E-1	4.35977210E+0
5.82905639E+2	8.28050200E-1	4.36764306E+0
5.82366243E+2	8.29919700E-1	4.37555475E+0
5.82054105E+2	8.31311300E-1	4.38439367E+0
5.81822253E+2	8.32784500E-1	4.39230837E+0
5.83229619E+2	8.34354700E-1	4.40015121E+0
5.82962735E+2	8.35812300E-1	4.40804524E+0
5.83086444E+2	8.37402100E-1	4.41656322E+0
5.83130597E+2	8.38914000E-1	4.42432909E+0
5.82760867E+2	8.40437700E-1	4.43224204E+0
5.83488168E+2	8.42093500E-1	4.44011116E+0
5.82751772E+2	8.43516200E-1	4.44890756E+0
5.83231055E+2	8.44977600E-1	4.45677467E+0
5.83684867E+2	8.46590600E-1	4.46469253E+0
5.83078781E+2	8.47997700E-1	4.47253228E+0
5.82522950E+2	8.49622300E-1	4.48027943E+0
5.83166092E+2	8.51181000E-1	4.48908441E+0
5.83235030E+2	8.52588100E-1	4.49705406E+0
5.84539956E+2	8.54103900E-1	4.50489479E+0
5.82577931E+2	8.55876400E-1	4.51272541E+0
5.83775610E+2	8.57271800E-1	4.52161261E+0
5.85162037E+2	8.58923700E-1	4.52944166E+0
5.83997105E+2	8.60253000E-1	4.53736020E+0
5.83155792E+2	8.62087600E-1	4.54513425E+0
5.82703796E+2	8.63549100E-1	4.55399370E+0
5.84475352E+2	8.64995000E-1	4.56183769E+0
5.83404009E+2	8.66433100E-1	4.56961327E+0
5.82472280E+2	8.68042400E-1	4.57746428E+0
5.82179459E+2	8.69682600E-1	4.58535379E+0
5.81931893E+2	8.71140200E-1	4.59422804E+0
5.82938325E+2	8.72562800E-1	4.60194826E+0
5.82146589E+2	8.74109700E-1	4.60991160E+0
5.82305549E+2	8.75765600E-1	4.61773328E+0
5.81893718E+2	8.77347600E-1	4.62658808E+0
5.82734716E+2	8.78696300E-1	4.63444477E+0
5.82372281E+2	8.80258800E-1	4.64230057E+0
5.83564456E+2	8.81728100E-1	4.65008951E+0
5.84154464E+2	8.83348800E-1	4.65798242E+0
5.83236641E+2	8.84837500E-1	4.66654392E+0
5.82814274E+2	8.86473900E-1	4.68088361E+0
5.82784195E+2	8.88083100E-1	4.68223977E+0
5.83178419E+2	8.89517400E-1	4.69107413E+0
5.83498076E+2	8.91033300E-1	4.69890296E+0
5.83497941E+2	8.92603600E-1	4.70680670E+0
5.83015056E+2	8.93983400E-1	4.71461697E+0
5.83300221E+2	8.95689800E-1	4.72249157E+0
5.83372537E+2	8.97139500E-1	4.73133053E+0
5.83557964E+2	8.98686500E-1	4.73907060E+0
5.83397978E+2	9.00322900E-1	4.74695197E+0
5.82265602E+2	9.01601700E-1	4.75575288E+0
5.82536973E+2	9.03350700E-1	4.76263360E+0
5.82603290E+2	9.04788900E-1	4.77145643E+0
5.82053447E+2	9.06382600E-1	4.77932756E+0
5.81593977E+2	9.07921700E-1	4.78718917E+0
5.81992389E+2	9.09616500E-1	4.79496001E+0
5.81909987E+2	9.11039100E-1	4.80383493E+0
5.82522689E+2	9.12473300E-1	4.81162763E+0
5.82333840E+2	9.13942500E-1	4.81948351E+0
5.82152420E+2	9.15660600E-1	4.82739955E+0
5.81876395E+2	9.17223100E-1	4.83615131E+0
5.82830729E+2	9.18750700E-1	4.84400237E+0
5.83417405E+2	9.19986600E-1	4.85179355E+0
5.82616665E+2	9.21712400E-1	4.85966236E+0
5.82779274E+2	9.23426500E-1	4.86748390E+0
5.82816647E+2	9.24853000E-1	4.87634559E+0
5.83005857E+2	9.26403900E-1	4.88422334E+0
5.83187772E+2	9.27896400E-1	4.89206526E+0
5.84587077E+2	9.29435600E-1	4.89988597E+0
5.83866847E+2	9.30955400E-1	4.90865813E+0
5.84419919E+2	9.32335300E-1	4.91627665E+0
5.84241066E+2	9.33781200E-1	4.92414179E+0
5.84191580E+2	9.35390400E-1	4.93194474E+0
5.83244180E+2	9.37065600E-1	4.93975725E+0
5.82344782E+2	9.38550400E-1	4.94862103E+0
5.83062220E+2	9.39973000E-1	4.95644307E+0
5.82223810E+2	9.41492800E-1	4.96429408E+0
5.82650815E+2	9.43210800E-1	4.97213525E+0
5.82698455E+2	9.44827700E-1	4.98090415E+0
5.82285229E+2	9.46281400E-1	4.98876062E+0
5.82075846E+2	9.47731300E-1	4.99658891E+0
5.82349169E+2	9.49367600E-1	5.00440719E+0
5.83432022E+2	9.50949600E-1	5.01328609E+0
5.81890651E+2	9.52306100E-1	5.02110303E+0
5.82096386E+2	9.53965800E-1	5.02897578E+0
5.81635925E+2	9.55267900E-1	5.03679951E+0
5.82868355E+2	9.56896500E-1	5.04447559E+0
5.81849180E+2	9.58606700E-1	5.05326943E+0
5.81471751E+2	9.59943900E-1	5.06115944E+0
5.81560052E+2	9.61486900E-1	5.06893260E+0
5.81006517E+2	9.63138900E-1	5.07675669E+0
5.81244672E+2	9.64798500E-1	5.08562066E+0
5.82084139E+2	9.66135600E-1	5.09346975E+0
5.82419331E+2	9.67748700E-1	5.10133313E+0
5.82837616E+2	9.69229600E-1	5.10902419E+0
5.82243114E+2	9.70842600E-1	5.11694205E+0
5.81700791E+2	9.72234200E-1	5.12568483E+0
5.82386440E+2	9.73862700E-1	5.13351433E+0
5.83051421E+2	9.75207600E-1	5.14131765E+0
5.84391559E+2	9.77057700E-1	5.14918659E+0
5.83246163E+2	9.78515300E-1	5.15805382E+0
5.82653402E+2	9.79953600E-1	5.16554834E+0
5.82161150E+2	9.80159600E-1	5.17346433E+0
5.82196227E+2	9.80046800E-1	5.17438146E+0
5.81978154E+2	9.80213900E-1	5.17436283E+0
5.82441903E+2	9.80058500E-1	5.17430778E+0
5.82815549E+2	9.80171100E-1	5.17429942E+0
5.82934300E+2	9.80167300E-1	5.17427286E+0
5.83184178E+2	9.80015700E-1	5.17424902E+0
5.82799814E+2	9.79976800E-1	5.17424549E+0
5.82135464E+2	9.80128400E-1	5.17426195E+0
5.82623393E+2	9.80031300E-1	5.17424920E+0
5.83208898E+2	9.80178900E-1	5.17421790E+0
5.83143652E+2	9.80163400E-1	5.17421379E+0
5.82020956E+2	9.80159600E-1	5.17420498E+0
5.82259575E+2	9.80136200E-1	5.17420413E+0
5.82038002E+2	9.80023500E-1	5.17420051E+0
5.82324203E+2	9.80046800E-1	5.17416885E+0
5.82177005E+2	9.80105100E-1	5.17416017E+0
5.81683943E+2	9.80163400E-1	5.17413338E+0
5.81585871E+2	9.80050700E-1	5.17413173E+0
5.81495499E+2	9.80054600E-1	5.17414881E+0
5.81086865E+2	9.80046800E-1	5.17413607E+0
5.81610652E+2	9.80058500E-1	5.17412878E+0
5.82345032E+2	9.80046800E-1	5.17411652E+0
5.82309189E+2	9.80163400E-1	5.17412802E+0
5.82365565E+2	9.80031300E-1	5.17413352E+0
5.82327831E+2	9.80074000E-1	5.17416200E+0
5.83611413E+2	9.80147800E-1	5.17418928E+0
5.82957284E+2	9.80206100E-1	5.17421352E+0
5.82793561E+2	9.80248900E-1	5.17422173E+0
5.83393228E+2	9.80229500E-1	5.17420058E+0
5.82873704E+2	9.80163400E-1	5.17421144E+0
5.82904458E+2	9.80186700E-1	5.17419463E+0
5.83499915E+2	9.80015700E-1	5.17421596E+0
5.84279314E+2	9.80081800E-1	5.17425325E+0
5.83435615E+2	9.80050700E-1	5.17419883E+0
5.82538557E+2	9.80159600E-1	5.17420406E+0
5.82442376E+2	9.80081800E-1	5.17422946E+0
5.82293962E+2	9.80198400E-1	5.17419440E+0
5.82238442E+2	9.80206100E-1	5.17419369E+0
5.82735691E+2	9.80039000E-1	5.17421176E+0
5.83146036E+2	9.80182800E-1	5.17420509E+0
5.82886492E+2	9.79996300E-1	5.17418667E+0
5.82552605E+2	9.80074000E-1	5.17415711E+0
5.82757710E+2	9.80058500E-1	5.17415702E+0
5.81654016E+2	9.80027400E-1	5.17417276E+0
5.81640373E+2	9.80178900E-1	5.17416364E+0
5.81868938E+2	9.80210000E-1	5.17416650E+0
5.82508928E+2	9.80031300E-1	5.17416914E+0
5.82292116E+2	9.80151700E-1	5.17413913E+0
5.82783737E+2	9.80015700E-1	5.17415478E+0
5.83302780E+2	9.80042800E-1	5.17411145E+0
5.83002440E+2	9.79996300E-1	5.17414280E+0
5.82290945E+2	9.80206100E-1	5.17413341E+0
5.82105099E+2	9.80031300E-1	5.17412460E+0
5.82506692E+2	9.80007900E-1	5.17412535E+0
5.83258803E+2	9.80229500E-1	5.17407539E+0
5.83931439E+2	9.80054600E-1	5.17409806E+0
5.83800541E+2	9.80182800E-1	5.17410410E+0
5.84288469E+2	9.80206100E-1	5.17413433E+0
5.84443953E+2	9.80097300E-1	5.17414712E+0
5.84614161E+2	9.80074000E-1	5.17412378E+0
5.84260382E+2	9.80140100E-1	5.17411452E+0
5.83953155E+2	9.80000100E-1	5.17412776E+0
5.83646601E+2	9.80194500E-1	5.17415159E+0
5.83871923E+2	9.80241100E-1	5.17413317E+0
5.83206537E+2	9.80042800E-1	5.17417046E+0
5.82506299E+2	9.80027400E-1	5.17413809E+0
5.82417683E+2	9.80233400E-1	5.17414529E+0
5.83574375E+2	9.80132300E-1	5.17414520E+0
5.82974185E+2	9.80217800E-1	5.17416210E+0
5.82328869E+2	9.80023500E-1	5.17414417E+0
5.81818066E+2	9.80132300E-1	5.17414560E+0
5.81366385E+2	9.80054600E-1	5.17413853E+0
5.82182662E+2	9.80120700E-1	5.17415141E+0
5.82639296E+2	9.80190600E-1	5.17414631E+0
5.82530101E+2	9.80178900E-1	5.17416375E+0
5.81779747E+2	9.80194500E-1	5.17415356E+0
5.81700553E+2	9.80136200E-1	5.17415709E+0
5.81904220E+2	9.80171100E-1	5.17413004E+0
5.82012243E+2	9.80136200E-1	5.17407879E+0
5.81784579E+2	9.79988500E-1	5.17411747E+0
5.81495721E+2	9.80050700E-1	5.17407195E+0
5.81133872E+2	9.80019600E-1	5.17409529E+0
5.81096273E+2	9.80089600E-1	5.17404552E+0
5.81978472E+2	9.80155700E-1	5.17409744E+0
5.82415814E+2	9.80015700E-1	5.17405782E+0
5.81815174E+2	9.80105100E-1	5.17404825E+0
5.82067558E+2	9.80155700E-1	5.17406211E+0
5.82940976E+2	9.79949600E-1	5.17404355E+0
5.82032886E+2	9.80062300E-1	5.17404096E+0
5.81628305E+2	9.80050700E-1	5.17405182E+0
5.81875422E+2	9.80194500E-1	5.17404118E+0
5.83337993E+2	9.80213900E-1	5.17405250E+0
