# Begin of measurement: 19.07.2019 14:53:01
# R-Sample[Ohm]	I-Coil[A]	U-Magnetometer[V]
# Kei2000	HP E3631A +6V : I	Kei2000
5.56729283E+2	-1.80118200E-2	-1.78970698E-1
5.56533815E+2	-1.81245400E-2	-1.78963812E-1
5.56818665E+2	-1.80934500E-2	-1.78924862E-1
5.56798582E+2	-1.81439800E-2	-1.78944941E-1
5.56335554E+2	-1.80701300E-2	-1.78925757E-1
5.56044400E+2	-1.66630700E-2	-1.78941453E-1
5.56090824E+2	-1.51316400E-2	-1.71619132E-1
5.56668945E+2	-1.36701700E-2	-1.64333122E-1
5.56021571E+2	-1.23602900E-2	-1.57955466E-1
5.56504231E+2	-1.08366300E-2	-1.50637796E-1
5.57102614E+2	-9.37516600E-3	-1.43331440E-1
5.58327659E+2	-7.79709000E-3	-1.36066671E-1
5.57898943E+2	-6.23844900E-3	-1.28799309E-1
5.58011785E+2	-4.94023000E-3	-1.21542723E-1
5.58316042E+2	-3.45155300E-3	-1.14242359E-1
5.57915289E+2	-1.92012100E-3	-1.06949237E-1
5.58110352E+2	-4.46991700E-4	-9.96563813E-2
5.56937855E+2	1.01836400E-3	-9.23286950E-2
5.57018006E+2	2.38266000E-3	-8.50210424E-2
5.56309794E+2	3.77416500E-3	-7.89440242E-2
5.56079646E+2	5.22397300E-3	-7.16001948E-2
5.55874766E+2	6.72042300E-3	-6.43292596E-2
5.56180825E+2	8.30238500E-3	-5.70279117E-2
5.55424977E+2	9.75996600E-3	-4.96807280E-2
5.55428849E+2	1.12214400E-2	-4.23584521E-2
5.55892958E+2	1.26945700E-2	-3.51121071E-2
5.56456729E+2	1.40161100E-2	-2.77666674E-2
5.56792911E+2	1.56486000E-2	-2.14867194E-2
5.56845955E+2	1.69662500E-2	-1.41737895E-2
5.56524812E+2	1.84354900E-2	-6.84762323E-3
5.55885858E+2	1.98775300E-2	4.65443045E-4
5.56214521E+2	2.14672600E-2	7.79736845E-3
5.56417227E+2	2.29287300E-2	1.51541115E-2
5.56289226E+2	2.44135200E-2	2.24784791E-2
5.56315477E+2	2.60032600E-2	2.98066925E-2
5.57596313E+2	2.73481200E-2	3.68046185E-2
5.57367433E+2	2.88095900E-2	4.41717813E-2
5.56536477E+2	3.02399600E-2	5.14308635E-2
5.56473282E+2	3.16509000E-2	5.78331012E-2
5.56897163E+2	3.31162500E-2	6.51738809E-2
5.57444709E+2	3.46671200E-2	7.24427539E-2
5.57765582E+2	3.62179900E-2	7.97440027E-2
5.57051206E+2	3.76172700E-2	8.70891636E-2
5.57549401E+2	3.92147800E-2	9.43824925E-2
5.57496672E+2	4.05635300E-2	1.01688257E-1
5.56523901E+2	4.19705800E-2	1.09021837E-1
5.56168131E+2	4.35486500E-2	1.16637185E-1
5.56719325E+2	4.50023500E-2	1.25555929E-1
5.56428126E+2	4.64560400E-2	1.39575169E-1
5.57150698E+2	4.78125600E-2	1.57426834E-1
5.57087252E+2	4.92856900E-2	1.69035368E-1
5.56493431E+2	5.09415100E-2	1.82960342E-1
5.57021698E+2	5.22630500E-2	1.91140211E-1
5.57853014E+2	5.37517300E-2	1.99290118E-1
5.56897239E+2	5.53064800E-2	2.07514570E-1
5.56177053E+2	5.66707800E-2	2.15682410E-1
5.56268821E+2	5.83615700E-2	2.23868539E-1
5.56510913E+2	5.99007800E-2	2.32035707E-1
5.56236046E+2	6.11951100E-2	2.40226487E-1
5.55681385E+2	6.25321900E-2	2.48325700E-1
5.55624964E+2	6.41569100E-2	2.55515556E-1
5.55248932E+2	6.54590200E-2	2.63709824E-1
5.55916524E+2	6.70565300E-2	2.71926586E-1
5.57861079E+2	6.85763000E-2	2.80058427E-1
5.57653941E+2	6.99561500E-2	2.88236999E-1
5.58107423E+2	7.14836900E-2	2.96498032E-1
5.57515254E+2	7.31239600E-2	3.04683267E-1
5.56670384E+2	7.43988500E-2	3.12808714E-1
5.57034214E+2	7.58914100E-2	3.20670548E-1
5.55954927E+2	7.74811500E-2	3.28847824E-1
5.55583442E+2	7.89154100E-2	3.36971437E-1
5.56594736E+2	8.03146900E-2	3.45201927E-1
5.57815459E+2	8.16673300E-2	3.52345634E-1
5.58146868E+2	8.31288000E-2	3.60585068E-1
5.57544837E+2	8.47651800E-2	3.68754160E-1
5.57647187E+2	8.60750600E-2	3.76865183E-1
5.56877740E+2	8.77036700E-2	3.84972474E-1
5.57112789E+2	8.90951600E-2	3.93119073E-1
5.57511201E+2	9.05877300E-2	4.01323804E-1
5.56973516E+2	9.20841800E-2	4.09495579E-1
5.57220992E+2	9.35689700E-2	4.17645397E-1
5.57534616E+2	9.51548200E-2	4.25855494E-1
5.58679015E+2	9.65463300E-2	4.33994133E-1
5.57937751E+2	9.80039000E-2	4.42208300E-1
5.57536908E+2	9.94887000E-2	4.50259783E-1
5.57472562E+2	1.00969600E-1	4.58418679E-1
5.56747648E+2	1.02318300E-1	4.66579154E-1
5.56898854E+2	1.03946900E-1	4.73794007E-1
5.56441004E+2	1.05284000E-1	4.81889045E-1
5.57056294E+2	1.06753300E-1	4.90082865E-1
5.57364813E+2	1.08257500E-1	4.98285628E-1
5.58199461E+2	1.09676200E-1	5.06418038E-1
5.57771646E+2	1.11184300E-1	5.14489823E-1
5.57715991E+2	1.12688600E-1	5.22668931E-1
5.56342307E+2	1.14297700E-1	5.30870309E-1
5.56496484E+2	1.15848600E-1	5.39021156E-1
5.57712191E+2	1.17158500E-1	5.47199834E-1
5.57195534E+2	1.18678200E-1	5.55399665E-1
5.57388256E+2	1.20236900E-1	5.63542731E-1
5.57032036E+2	1.21589500E-1	5.71708111E-1
5.57324721E+2	1.23260900E-1	5.79511946E-1
5.57333862E+2	1.24730100E-1	5.87770921E-1
5.57007021E+2	1.26012800E-1	5.95848699E-1
5.57017828E+2	1.27365400E-1	6.03001797E-1
5.57569697E+2	1.28904600E-1	6.11179698E-1
5.56940334E+2	1.30385500E-1	6.19338058E-1
5.55903733E+2	1.31940300E-1	6.27547486E-1
5.55876265E+2	1.33331800E-1	6.35684828E-1
5.57442177E+2	1.34832100E-1	6.43728307E-1
5.57073618E+2	1.36406300E-1	6.51895073E-1
5.56650620E+2	1.37891100E-1	6.60056921E-1
5.55928588E+2	1.39193200E-1	6.68217695E-1
5.57359369E+2	1.40775200E-1	6.76315194E-1
5.57507693E+2	1.42260000E-1	6.84484062E-1
5.56842032E+2	1.43911900E-1	6.92651141E-1
5.56118315E+2	1.45229600E-1	7.00812274E-1
5.55870613E+2	1.46733800E-1	7.09019242E-1
5.56094630E+2	1.48292400E-1	7.17221023E-1
5.55603729E+2	1.49645000E-1	7.25327867E-1
5.55534835E+2	1.50993800E-1	7.33443074E-1
5.55689914E+2	1.52544700E-1	7.40622645E-1
5.55795581E+2	1.54150000E-1	7.48703955E-1
5.55799813E+2	1.55455900E-1	7.56859363E-1
5.56035718E+2	1.57076800E-1	7.65028321E-1
5.55116461E+2	1.58437200E-1	7.73021492E-1
5.55125782E+2	1.59922000E-1	7.81249657E-1
5.55638566E+2	1.61379600E-1	7.89326495E-1
5.56748907E+2	1.63035400E-1	7.97521389E-1
5.56794594E+2	1.64535700E-1	8.05803305E-1
5.56365022E+2	1.65861100E-1	8.13848439E-1
5.56658923E+2	1.67509200E-1	8.22035552E-1
5.56926482E+2	1.68830700E-1	8.30164487E-1
5.57240916E+2	1.70261100E-1	8.38037456E-1
5.57559358E+2	1.71932400E-1	8.46156464E-1
5.57202369E+2	1.73428900E-1	8.54370890E-1
5.57400764E+2	1.74956400E-1	8.62515252E-1
5.57036664E+2	1.76099200E-1	8.70611363E-1
5.56854298E+2	1.77506200E-1	8.77766205E-1
5.57000596E+2	1.79107600E-1	8.85940126E-1
5.57282925E+2	1.80514700E-1	8.94099603E-1
5.56827782E+2	1.82050000E-1	9.02125641E-1
5.56250742E+2	1.83577500E-1	9.10297595E-1
5.56216115E+2	1.85155600E-1	9.18434713E-1
5.57183237E+2	1.86597700E-1	9.26594369E-1
5.57918597E+2	1.87965900E-1	9.34745036E-1
5.56852457E+2	1.89602200E-1	9.42901606E-1
5.56518001E+2	1.91098700E-1	9.51109826E-1
5.56526346E+2	1.92505700E-1	9.59285223E-1
5.56694077E+2	1.93963300E-1	9.67193474E-1
5.57189616E+2	1.95389800E-1	9.75409519E-1
5.56767609E+2	1.96940700E-1	9.83482377E-1
5.56092137E+2	1.98355500E-1	9.91637025E-1
5.56376221E+2	1.99867500E-1	9.99846765E-1
5.56918518E+2	2.01371700E-1	1.00792602E+0
5.57442424E+2	2.02883700E-1	1.01607127E+0
5.57188148E+2	2.04306300E-1	1.02321764E+0
5.57048064E+2	2.05655100E-1	1.03127847E+0
5.56350934E+2	2.07108800E-1	1.03942163E+0
5.56983133E+2	2.08694600E-1	1.04754220E+0
5.57610811E+2	2.10058900E-1	1.05570847E+0
5.56750717E+2	2.11582500E-1	1.06386205E+0
5.57526963E+2	2.13172300E-1	1.07199787E+0
5.58207884E+2	2.14684300E-1	1.08014366E+0
5.57547136E+2	2.16017500E-1	1.08828476E+0
5.58003364E+2	2.17521700E-1	1.09609789E+0
5.57840869E+2	2.19018200E-1	1.10432570E+0
5.56924195E+2	2.20530200E-1	1.11239328E+0
5.57344986E+2	2.22022700E-1	1.12054158E+0
5.57174238E+2	2.23538600E-1	1.12869725E+0
5.58091287E+2	2.25108900E-1	1.13688401E+0
5.57270328E+2	2.26648100E-1	1.14504751E+0
5.57060000E+2	2.27864700E-1	1.15312890E+0
5.56241719E+2	2.29279500E-1	1.16015719E+0
5.56727892E+2	2.30888700E-1	1.16831475E+0
5.57308443E+2	2.32396800E-1	1.17645133E+0
5.57364459E+2	2.33901000E-1	1.18459359E+0
5.57157643E+2	2.35261400E-1	1.19270446E+0
5.56796650E+2	2.36680200E-1	1.20085405E+0
5.56615867E+2	2.38347600E-1	1.20896943E+0
5.56317004E+2	2.39793600E-1	1.21712502E+0
5.56387564E+2	2.41223900E-1	1.22525118E+0
5.56937631E+2	2.42728200E-1	1.23334984E+0
5.56842081E+2	2.44333400E-1	1.24153075E+0
5.56332764E+2	2.45798800E-1	1.24963974E+0
5.57056482E+2	2.47271900E-1	1.25775186E+0
5.56482379E+2	2.48667300E-1	1.26591433E+0
5.57355931E+2	2.50264800E-1	1.27406410E+0
5.57695896E+2	2.51566900E-1	1.28214774E+0
5.57634567E+2	2.52915700E-1	1.28931090E+0
5.57582334E+2	2.54412100E-1	1.29735652E+0
5.57826298E+2	2.55947400E-1	1.30549919E+0
5.57935833E+2	2.57529400E-1	1.31362056E+0
5.57344429E+2	2.58952000E-1	1.32170513E+0
5.57670345E+2	2.60363000E-1	1.32985947E+0
5.57676649E+2	2.61859400E-1	1.33797194E+0
5.57929889E+2	2.63484100E-1	1.34612180E+0
5.58356939E+2	2.64829000E-1	1.35424846E+0
5.57896003E+2	2.66434300E-1	1.36201352E+0
5.58217208E+2	2.67907400E-1	1.37014406E+0
5.57470817E+2	2.69310600E-1	1.37824268E+0
5.57198665E+2	2.70721500E-1	1.38637926E+0
5.57301465E+2	2.72462800E-1	1.39455698E+0
5.56532109E+2	2.73908700E-1	1.40264589E+0
5.56631019E+2	2.75420700E-1	1.41074168E+0
5.56380784E+2	2.76652900E-1	1.41885009E+0
5.57085029E+2	2.77997700E-1	1.42588053E+0
5.57022935E+2	2.79482600E-1	1.43396792E+0
5.56718362E+2	2.80940100E-1	1.44203129E+0
5.56586789E+2	2.82638700E-1	1.45014677E+0
5.56747541E+2	2.84041900E-1	1.45830262E+0
5.55855767E+2	2.85639400E-1	1.46641027E+0
5.55962935E+2	2.87100800E-1	1.47455136E+0
5.57286050E+2	2.88480700E-1	1.48267497E+0
5.56723195E+2	2.89918800E-1	1.49065741E+0
5.56575862E+2	2.91477400E-1	1.49873223E+0
5.55572853E+2	2.92927300E-1	1.50682387E+0
5.55826720E+2	2.94548100E-1	1.51501549E+0
5.56835998E+2	2.95931800E-1	1.52303370E+0
5.56863961E+2	2.97432200E-1	1.53120114E+0
5.56973425E+2	2.98901400E-1	1.53931531E+0
5.56571996E+2	3.00324000E-1	1.54744756E+0
5.56723472E+2	3.01665000E-1	1.55545052E+0
5.57017951E+2	3.03219700E-1	1.56257973E+0
5.56925986E+2	3.04669500E-1	1.57067473E+0
5.56960658E+2	3.06150400E-1	1.57878631E+0
5.57537832E+2	3.07728500E-1	1.58687200E+0
5.57089214E+2	3.09232700E-1	1.59500661E+0
5.57095518E+2	3.10600900E-1	1.60305111E+0
5.56183016E+2	3.12179000E-1	1.61121694E+0
5.55872446E+2	3.13570500E-1	1.61897695E+0
5.56034233E+2	3.15086400E-1	1.62701032E+0
5.56585381E+2	3.16512900E-1	1.63515875E+0
5.56424540E+2	3.18059900E-1	1.64324833E+0
5.56160268E+2	3.19657300E-1	1.65136537E+0
5.56426431E+2	3.21091600E-1	1.65945231E+0
5.56669945E+2	3.22498700E-1	1.66753390E+0
5.55805128E+2	3.23983500E-1	1.67561427E+0
5.55908108E+2	3.25281700E-1	1.68364451E+0
5.56550034E+2	3.26953100E-1	1.69072521E+0
5.56835064E+2	3.28313500E-1	1.69876095E+0
5.56616586E+2	3.29809900E-1	1.70687003E+0
5.56558409E+2	3.31174200E-1	1.71493720E+0
5.55992266E+2	3.32752300E-1	1.72311166E+0
5.55584308E+2	3.34240900E-1	1.73115067E+0
5.55640054E+2	3.35826800E-1	1.73925930E+0
5.55537029E+2	3.37233900E-1	1.74729177E+0
5.55323053E+2	3.38621500E-1	1.75539741E+0
5.56360509E+2	3.40300600E-1	1.76349947E+0
5.56526774E+2	3.41738800E-1	1.77154151E+0
5.55974677E+2	3.43309000E-1	1.77966436E+0
5.56191534E+2	3.44688900E-1	1.78775229E+0
5.57073732E+2	3.46274800E-1	1.79583074E+0
5.56885243E+2	3.47642900E-1	1.80391030E+0
5.57114618E+2	3.49221000E-1	1.81191912E+0
5.57199767E+2	3.50577500E-1	1.81999904E+0
5.56588776E+2	3.52031200E-1	1.82709602E+0
5.57358718E+2	3.53547100E-1	1.83516275E+0
5.57399153E+2	3.54923100E-1	1.84327285E+0
5.56812342E+2	3.56559500E-1	1.85135443E+0
5.57943773E+2	3.58075300E-1	1.85940175E+0
5.57439949E+2	3.59358000E-1	1.86751258E+0
5.56914175E+2	3.60940000E-1	1.87520171E+0
5.56797552E+2	3.62319800E-1	1.88327187E+0
5.56230102E+2	3.63855100E-1	1.89131561E+0
5.56789446E+2	3.65301000E-1	1.89939938E+0
5.56593212E+2	3.66941300E-1	1.90753189E+0
5.56205922E+2	3.68255100E-1	1.91556607E+0
5.57276921E+2	3.69782600E-1	1.92365842E+0
5.57133415E+2	3.71372400E-1	1.93172895E+0
5.56520217E+2	3.72868800E-1	1.93967539E+0
5.56024048E+2	3.74194200E-1	1.94774807E+0
5.55430753E+2	3.75562400E-1	1.95480346E+0
5.55342857E+2	3.77086100E-1	1.96284922E+0
5.54945301E+2	3.78668000E-1	1.97095052E+0
5.55088987E+2	3.80016800E-1	1.97899833E+0
5.55406708E+2	3.81439400E-1	1.98704015E+0
5.55686830E+2	3.82889200E-1	1.99515545E+0
5.55533913E+2	3.84548900E-1	2.00271611E+0
5.55376584E+2	3.85889900E-1	2.01077926E+0
5.55511084E+2	3.87366900E-1	2.01882309E+0
5.55396231E+2	3.88863400E-1	2.02689376E+0
5.55237820E+2	3.90406400E-1	2.03499367E+0
5.55621598E+2	3.91949500E-1	2.04309220E+0
5.55878531E+2	3.93333300E-1	2.05109194E+0
5.57156799E+2	3.94849200E-1	2.05918559E+0
5.56695753E+2	3.96353400E-1	2.06715202E+0
5.56826634E+2	3.97760400E-1	2.07523574E+0
5.56498954E+2	3.99233600E-1	2.08222012E+0
5.57557304E+2	4.00578400E-1	2.09032656E+0
5.57502639E+2	4.02047700E-1	2.09837665E+0
5.57088377E+2	4.03548000E-1	2.10637944E+0
5.56507780E+2	4.05227100E-1	2.11448185E+0
5.56007594E+2	4.06583600E-1	2.12248312E+0
5.56163738E+2	4.08056800E-1	2.13025949E+0
5.56273112E+2	4.09498800E-1	2.13823214E+0
5.56400858E+2	4.10944700E-1	2.14632910E+0
5.57135723E+2	4.12460600E-1	2.15437383E+0
5.56926926E+2	4.14139700E-1	2.16244159E+0
5.56239161E+2	4.15593400E-1	2.17048739E+0
5.56851799E+2	4.17148200E-1	2.17852479E+0
5.56826313E+2	4.18605800E-1	2.18657573E+0
5.57176950E+2	4.19970100E-1	2.19451636E+0
5.57520022E+2	4.21182800E-1	2.20259556E+0
5.57198023E+2	4.22675300E-1	2.20956755E+0
5.56998637E+2	4.24183500E-1	2.21764998E+0
5.58035598E+2	4.25703200E-1	2.22570795E+0
5.58310677E+2	4.27191900E-1	2.23374929E+0
5.57223149E+2	4.28711700E-1	2.24177613E+0
5.56706357E+2	4.30250900E-1	2.24987725E+0
5.56755168E+2	4.31630800E-1	2.25791035E+0
5.57385522E+2	4.33274900E-1	2.26592266E+0
5.57529253E+2	4.34825800E-1	2.27389003E+0
5.56858283E+2	4.36314400E-1	2.28194983E+0
5.57659565E+2	4.37775900E-1	2.28998293E+0
5.57952250E+2	4.39085800E-1	2.29799233E+0
5.56865848E+2	4.40636600E-1	2.30597388E+0
5.55970141E+2	4.42144800E-1	2.31408416E+0
5.56450955E+2	4.43582900E-1	2.32200350E+0
5.56036174E+2	4.45230900E-1	2.32998250E+0
5.56085705E+2	4.46412600E-1	2.33801650E+0
5.57225466E+2	4.47909000E-1	2.34510440E+0
5.56926567E+2	4.49537600E-1	2.35310663E+0
5.56302562E+2	4.50859200E-1	2.36116088E+0
5.56480200E+2	4.52487800E-1	2.36916228E+0
5.57092674E+2	4.53999800E-1	2.37719207E+0
5.57814931E+2	4.55301900E-1	2.38518775E+0
5.57766526E+2	4.56775000E-1	2.39289696E+0
5.58261794E+2	4.58388000E-1	2.40094079E+0
5.57919307E+2	4.59725100E-1	2.40893606E+0
5.57476812E+2	4.61279900E-1	2.41690687E+0
5.57123144E+2	4.62788000E-1	2.42492862E+0
5.56513629E+2	4.64249500E-1	2.43298269E+0
5.56707747E+2	4.65730400E-1	2.44096951E+0
5.56142819E+2	4.67405600E-1	2.44902614E+0
5.55960229E+2	4.68517300E-1	2.45698756E+0
5.56408758E+2	4.69967100E-1	2.46398812E+0
5.58341675E+2	4.71541300E-1	2.47205272E+0
5.56943851E+2	4.72948300E-1	2.48002144E+0
5.56590467E+2	4.74503100E-1	2.48799632E+0
5.56578805E+2	4.76100600E-1	2.49607526E+0
5.56150674E+2	4.77589300E-1	2.50410993E+0
5.56254330E+2	4.78938000E-1	2.51214383E+0
5.56295531E+2	4.80586100E-1	2.51996193E+0
5.56462473E+2	4.81977600E-1	2.52802929E+0
5.56325946E+2	4.83392400E-1	2.53601423E+0
5.57341924E+2	4.84861600E-1	2.54399730E+0
5.56799961E+2	4.86373600E-1	2.55201238E+0
5.56148579E+2	4.88045000E-1	2.55996069E+0
5.57155911E+2	4.89514200E-1	2.56800200E+0
5.56171826E+2	4.90793000E-1	2.57598457E+0
5.55848349E+2	4.92402200E-1	2.58392569E+0
5.55923232E+2	4.93704300E-1	2.59195181E+0
5.56007480E+2	4.95161900E-1	2.59892577E+0
5.56085514E+2	4.96809900E-1	2.60693249E+0
5.56346949E+2	4.98119800E-1	2.61494779E+0
5.56866934E+2	4.99756100E-1	2.62296882E+0
5.57354847E+2	5.01155400E-1	2.63098153E+0
5.57498713E+2	5.02581900E-1	2.63901804E+0
5.56491201E+2	5.04175600E-1	2.64669371E+0
5.55798978E+2	5.05598100E-1	2.65473267E+0
5.56204595E+2	5.07191800E-1	2.66272530E+0
5.55797267E+2	5.08517200E-1	2.67068153E+0
5.56980009E+2	5.10153600E-1	2.67867864E+0
5.56615368E+2	5.11521800E-1	2.68665097E+0
5.56768330E+2	5.13138700E-1	2.69463940E+0
5.56792195E+2	5.14464100E-1	2.70262698E+0
5.56820113E+2	5.15995600E-1	2.71057673E+0
5.56008114E+2	5.17488100E-1	2.71857334E+0
5.56341378E+2	5.18903000E-1	2.72646576E+0
5.56963991E+2	5.20348800E-1	2.73342169E+0
5.56740695E+2	5.21845300E-1	2.74139604E+0
5.55578780E+2	5.23159100E-1	2.74948218E+0
5.55501286E+2	5.24733300E-1	2.75744905E+0
5.54762909E+2	5.26249200E-1	2.76541087E+0
5.54816760E+2	5.28013800E-1	2.77341509E+0
5.56093000E+2	5.29483000E-1	2.78236093E+0
5.56262127E+2	5.31018400E-1	2.79040186E+0
5.56306750E+2	5.32448700E-1	2.79838027E+0
5.55814814E+2	5.33708100E-1	2.80632877E+0
5.56842814E+2	5.35212300E-1	2.81331144E+0
5.56236911E+2	5.36654400E-1	2.82127166E+0
5.56673266E+2	5.38185800E-1	2.82928786E+0
5.56489325E+2	5.39631700E-1	2.83712483E+0
5.56354014E+2	5.41085400E-1	2.84522559E+0
5.56805470E+2	5.42647900E-1	2.85312781E+0
5.56451591E+2	5.44276500E-1	2.86112576E+0
5.56089517E+2	5.45602000E-1	2.86915958E+0
5.56200820E+2	5.47234400E-1	2.87710052E+0
5.56261979E+2	5.48575400E-1	2.89192017E+0
5.56063538E+2	5.50075800E-1	2.89308373E+0
5.56082450E+2	5.51510000E-1	2.90072899E+0
5.57037414E+2	5.53095900E-1	2.90871921E+0
5.56950554E+2	5.54502900E-1	2.91665885E+0
5.56869147E+2	5.55968300E-1	2.92466750E+0
5.57699611E+2	5.57538600E-1	2.93265436E+0
5.57161791E+2	5.59151600E-1	2.94063246E+0
5.56794719E+2	5.60515900E-1	2.94861280E+0
5.56756264E+2	5.62024100E-1	2.95655257E+0
5.56354295E+2	5.63423300E-1	2.96448345E+0
5.55970391E+2	5.64970300E-1	2.97241241E+0
5.55892747E+2	5.66431800E-1	2.98038915E+0
5.55824844E+2	5.67932100E-1	2.98837163E+0
5.56352533E+2	5.69622900E-1	2.99631718E+0
5.56260675E+2	5.71037700E-1	3.00428531E+0
5.57273005E+2	5.72199900E-1	3.01226314E+0
5.56322228E+2	5.73618600E-1	3.01925717E+0
5.56188465E+2	5.75293800E-1	3.02704066E+0
5.56136547E+2	5.76712600E-1	3.03502578E+0
5.56419866E+2	5.78279000E-1	3.04293792E+0
5.57338897E+2	5.79814300E-1	3.05091535E+0
5.56951202E+2	5.81279700E-1	3.05892439E+0
5.56209763E+2	5.82772300E-1	3.06688286E+0
5.56982469E+2	5.84237600E-1	3.07484290E+0
5.56889222E+2	5.85644700E-1	3.08281326E+0
5.56864816E+2	5.87044000E-1	3.09064638E+0
5.57527411E+2	5.88614200E-1	3.09867855E+0
5.58426765E+2	5.90052400E-1	3.10661253E+0
5.57711802E+2	5.91723700E-1	3.11466468E+0
5.56768860E+2	5.93224000E-1	3.12253542E+0
5.56008306E+2	5.94460100E-1	3.13050359E+0
5.56621459E+2	5.96084800E-1	3.13850615E+0
5.55620431E+2	5.97297500E-1	3.14641695E+0
5.55746871E+2	5.98918300E-1	3.15306920E+0
5.55468325E+2	6.00453700E-1	3.16101072E+0
5.56178064E+2	6.01763500E-1	3.16898265E+0
5.56563579E+2	6.03260000E-1	3.17687914E+0
5.55707723E+2	6.04822500E-1	3.18484978E+0
5.56151749E+2	6.06338400E-1	3.19277582E+0
5.55772654E+2	6.07877600E-1	3.20075178E+0
5.55435841E+2	6.09366300E-1	3.20868605E+0
5.56021346E+2	6.10718900E-1	3.21656340E+0
5.56064537E+2	6.12324200E-1	3.22449115E+0
5.55876038E+2	6.13711800E-1	3.23250901E+0
5.57670377E+2	6.15231600E-1	3.24042012E+0
5.56821591E+2	6.16735800E-1	3.24835086E+0
5.57432402E+2	6.18321700E-1	3.25627986E+0
5.57791099E+2	6.19790900E-1	3.26422845E+0
5.57345014E+2	6.20991900E-1	3.27217095E+0
5.56277679E+2	6.22620600E-1	3.27914961E+0
5.55813886E+2	6.23965500E-1	3.28707731E+0
5.56366115E+2	6.25419100E-1	3.29497447E+0
5.56245259E+2	6.27024400E-1	3.31030184E+0
5.56174204E+2	6.28660800E-1	3.31091403E+0
5.56597832E+2	6.30273800E-1	3.31987589E+0
5.58586786E+2	6.31634200E-1	3.32773508E+0
5.57570674E+2	6.33060700E-1	3.33571551E+0
5.57543477E+2	6.34603900E-1	3.34353378E+0
5.56329420E+2	6.35917600E-1	3.35156532E+0
5.55944337E+2	6.37519000E-1	3.35845919E+0
5.56058754E+2	6.38875500E-1	3.36635363E+0
5.55111280E+2	6.40352500E-1	3.37431800E+0
5.56059151E+2	6.41825700E-1	3.38227553E+0
5.55528446E+2	6.43318200E-1	3.39020100E+0
5.55383139E+2	6.44783500E-1	3.39816926E+0
5.55456580E+2	6.46276100E-1	3.40580737E+0
5.55635253E+2	6.47780400E-1	3.41375349E+0
5.56137913E+2	6.49358500E-1	3.42165875E+0
5.55940480E+2	6.50905400E-1	3.42965746E+0
5.56543951E+2	6.52436900E-1	3.43762733E+0
5.55944262E+2	6.53902200E-1	3.44649939E+0
5.56188317E+2	6.55596900E-1	3.45441846E+0
5.56441016E+2	6.56906800E-1	3.46236745E+0
5.56216636E+2	6.58523800E-1	3.47021770E+0
5.56867490E+2	6.60086200E-1	3.47815609E+0
5.56972857E+2	6.61730400E-1	3.48707193E+0
5.57552193E+2	6.63028600E-1	3.49500017E+0
5.57249602E+2	6.64680500E-1	3.50286942E+0
5.57510496E+2	6.66375200E-1	3.51083187E+0
5.56410091E+2	6.67844500E-1	3.51976059E+0
5.55966410E+2	6.69352600E-1	3.52771208E+0
5.56418090E+2	6.70798500E-1	3.53549981E+0
5.56774040E+2	6.72493200E-1	3.54339630E+0
5.57391650E+2	6.73865300E-1	3.55235019E+0
5.57230313E+2	6.75470500E-1	3.56028894E+0
5.56385670E+2	6.76819300E-1	3.56817273E+0
5.56236055E+2	6.78498400E-1	3.57613428E+0
5.55980969E+2	6.80169800E-1	3.58401422E+0
5.56678414E+2	6.81541900E-1	3.59298341E+0
5.57474247E+2	6.83100500E-1	3.60071413E+0
5.56663825E+2	6.84495900E-1	3.60860690E+0
5.56977763E+2	6.86140000E-1	3.61652607E+0
5.56665515E+2	6.87652100E-1	3.62554793E+0
5.56971934E+2	6.89125200E-1	3.63342018E+0
5.56778131E+2	6.90598300E-1	3.64142301E+0
5.57114899E+2	6.92164700E-1	3.64931878E+0
5.57268086E+2	6.93898200E-1	3.65726087E+0
5.56570865E+2	6.95282000E-1	3.66580778E+0
5.57416548E+2	6.96898900E-1	3.67377443E+0
5.57264353E+2	6.98348800E-1	3.68169632E+0
5.57133590E+2	6.99919000E-1	3.68965372E+0
5.57786503E+2	7.01543800E-1	3.69850624E+0
5.58386327E+2	7.02935300E-1	3.70643184E+0
5.57993319E+2	7.04490000E-1	3.71434363E+0
5.58387981E+2	7.05858200E-1	3.72219956E+0
5.58838468E+2	7.07751100E-1	3.73013182E+0
5.58475989E+2	7.09018200E-1	3.73907534E+0
5.58309969E+2	7.10580800E-1	3.74686598E+0
5.58166958E+2	7.12209400E-1	3.75486872E+0
5.56898642E+2	7.13841900E-1	3.76281744E+0
5.56598114E+2	7.15237300E-1	3.77172446E+0
5.57750336E+2	7.16850300E-1	3.77959072E+0
5.56581127E+2	7.18160200E-1	3.78744531E+0
5.56751965E+2	7.19843200E-1	3.79536671E+0
5.56984807E+2	7.21324100E-1	3.80430343E+0
5.56689420E+2	7.22937200E-1	3.81215135E+0
5.56477293E+2	7.24488000E-1	3.82004176E+0
5.57071330E+2	7.25829000E-1	3.82799025E+0
5.56243617E+2	7.27644200E-1	3.83585794E+0
5.56988613E+2	7.29012400E-1	3.84482243E+0
5.56058595E+2	7.30508800E-1	3.85259143E+0
5.56099706E+2	7.32055800E-1	3.86051260E+0
5.55785678E+2	7.33773800E-1	3.86841567E+0
5.55977049E+2	7.35161400E-1	3.87726322E+0
5.56333269E+2	7.36700600E-1	3.88514003E+0
5.56614562E+2	7.38317500E-1	3.89308258E+0
5.57659267E+2	7.39806200E-1	3.90100657E+0
5.58307317E+2	7.41201600E-1	3.90895752E+0
5.58676190E+2	7.42779700E-1	3.91748360E+0
5.57941522E+2	7.44221700E-1	3.92541716E+0
5.57404693E+2	7.45799800E-1	3.93335711E+0
5.57266095E+2	7.47428400E-1	3.94121474E+0
5.57211790E+2	7.49010400E-1	3.95008757E+0
5.56823105E+2	7.50417400E-1	3.95798299E+0
5.57487185E+2	7.52030500E-1	3.96590582E+0
5.57124386E+2	7.53495900E-1	3.97366220E+0
5.56818973E+2	7.55050600E-1	3.98153682E+0
5.56127965E+2	7.56718100E-1	3.99042095E+0
5.55972662E+2	7.58210700E-1	3.99834499E+0
5.55956226E+2	7.59652700E-1	4.00627072E+0
5.55244056E+2	7.61223000E-1	4.01420106E+0
5.56017457E+2	7.62719400E-1	4.02302921E+0
5.55924482E+2	7.64021500E-1	4.03095382E+0
5.55669981E+2	7.65413000E-1	4.03747054E+0
5.55839243E+2	7.67263200E-1	4.04528662E+0
5.56288043E+2	7.68670300E-1	4.05422549E+0
5.57373950E+2	7.70131700E-1	4.06214344E+0
5.57159759E+2	7.71573700E-1	4.07003756E+0
5.57360060E+2	7.73085700E-1	4.07791848E+0
5.56223541E+2	7.74904800E-1	4.08578461E+0
5.56505960E+2	7.76401300E-1	4.09466565E+0
5.56775590E+2	7.77835500E-1	4.10249846E+0
5.56295046E+2	7.79273700E-1	4.11039168E+0
5.57153057E+2	7.80890600E-1	4.11818962E+0
5.57969187E+2	7.82484200E-1	4.12708846E+0
5.57788352E+2	7.84046800E-1	4.13498365E+0
5.57556590E+2	7.85496600E-1	4.14292593E+0
5.56443035E+2	7.86872500E-1	4.15074144E+0
5.57004451E+2	7.88536100E-1	4.15864325E+0
5.56467900E+2	7.90017000E-1	4.16719552E+0
5.56635961E+2	7.91501800E-1	4.17510708E+0
5.56925404E+2	7.92986600E-1	4.18299422E+0
5.56592283E+2	7.94716300E-1	4.19084666E+0
5.56609935E+2	7.96173800E-1	4.19971393E+0
5.56710798E+2	7.97716900E-1	4.20759361E+0
5.56862508E+2	7.99310600E-1	4.21549483E+0
5.56417932E+2	8.00795400E-1	4.22341382E+0
5.57118080E+2	8.02451100E-1	4.23214671E+0
5.57033021E+2	8.03768800E-1	4.24001328E+0
5.57240423E+2	8.05327500E-1	4.24786943E+0
5.57800397E+2	8.06936600E-1	4.25579253E+0
5.57509513E+2	8.08584600E-1	4.26370739E+0
5.57400850E+2	8.10030600E-1	4.27260154E+0
5.57125726E+2	8.11569800E-1	4.28047916E+0
5.57599156E+2	8.12934100E-1	4.28835973E+0
5.58380581E+2	8.14753200E-1	4.29620005E+0
5.57698399E+2	8.16121400E-1	4.30499747E+0
5.57641573E+2	8.17617800E-1	4.31288573E+0
5.57801317E+2	8.19172500E-1	4.32078307E+0
5.57811449E+2	8.20785600E-1	4.32865559E+0
5.57280112E+2	8.22239300E-1	4.33750752E+0
5.57088021E+2	8.23759100E-1	4.34539207E+0
5.56975900E+2	8.25251700E-1	4.35312721E+0
5.57021739E+2	8.26911400E-1	4.36106479E+0
5.56910354E+2	8.28419500E-1	4.36889805E+0
5.56321832E+2	8.30071400E-1	4.37779788E+0
5.56155811E+2	8.31606700E-1	4.38564084E+0
5.55678959E+2	8.32877700E-1	4.39354300E+0
5.56162025E+2	8.34607400E-1	4.40141796E+0
5.57261577E+2	8.36010600E-1	4.41029561E+0
5.57765834E+2	8.37479800E-1	4.41786105E+0
5.57053521E+2	8.39182200E-1	4.42571609E+0
5.57250611E+2	8.40612600E-1	4.43358861E+0
5.57329861E+2	8.42280000E-1	4.44139029E+0
5.56347114E+2	8.43862000E-1	4.45031301E+0
5.56820093E+2	8.45311800E-1	4.45816961E+0
5.56471634E+2	8.46750000E-1	4.46601579E+0
5.57390061E+2	8.48355200E-1	4.47390924E+0
5.57901810E+2	8.50007200E-1	4.48274883E+0
5.57641906E+2	8.51441500E-1	4.49066231E+0
5.56409430E+2	8.52821300E-1	4.49844655E+0
5.56232648E+2	8.54465400E-1	4.50627024E+0
5.57246626E+2	8.56000800E-1	4.51510956E+0
5.56467874E+2	8.57512800E-1	4.52297211E+0
5.56633174E+2	8.58931400E-1	4.53080308E+0
5.56702563E+2	8.60513500E-1	4.53857355E+0
5.56474088E+2	8.62250900E-1	4.54641982E+0
5.57622450E+2	8.63770700E-1	4.55527877E+0
5.57748048E+2	8.65185500E-1	4.56314222E+0
5.57205184E+2	8.66647000E-1	4.57095723E+0
5.56828611E+2	8.68438800E-1	4.57880461E+0
5.56898585E+2	8.69853600E-1	4.58763678E+0
5.57442350E+2	8.71249000E-1	4.59552571E+0
5.56828026E+2	8.72776600E-1	4.60335968E+0
5.57195413E+2	8.74245800E-1	4.61798950E+0
5.58314149E+2	8.76119200E-1	4.61906514E+0
5.58072346E+2	8.77615700E-1	4.62790272E+0
5.57441766E+2	8.79003300E-1	4.63576531E+0
5.57267550E+2	8.80445400E-1	4.64358998E+0
5.57424385E+2	8.82229400E-1	4.65150527E+0
5.57397503E+2	8.83613200E-1	4.66030995E+0
5.57789571E+2	8.85125200E-1	4.66779999E+0
5.57427316E+2	8.86508900E-1	4.67576105E+0
5.57719642E+2	8.88157000E-1	4.68357177E+0
5.57603063E+2	8.89832200E-1	4.69239128E+0
5.56982975E+2	8.91285900E-1	4.70019923E+0
5.56928310E+2	8.92661900E-1	4.70810667E+0
5.56993713E+2	8.94197200E-1	4.71596560E+0
5.57694447E+2	8.95814100E-1	4.72386021E+0
5.58060303E+2	8.97326100E-1	4.73262206E+0
5.57542791E+2	8.98888700E-1	4.74052343E+0
5.56547570E+2	9.00307400E-1	4.74833384E+0
5.56343456E+2	9.02068100E-1	4.75618977E+0
5.56620613E+2	9.03514000E-1	4.76497087E+0
5.56591841E+2	9.05123100E-1	4.77279531E+0
5.56850034E+2	9.06475800E-1	4.78068635E+0
5.56756961E+2	9.08341500E-1	4.78853226E+0
5.57694859E+2	9.09628100E-1	4.79731828E+0
5.57913473E+2	9.11229500E-1	4.80506353E+0
5.58311075E+2	9.12609400E-1	4.81300210E+0
5.57677897E+2	9.14082400E-1	4.82087757E+0
5.56806100E+2	9.15808300E-1	4.82874280E+0
5.57483013E+2	9.17316300E-1	4.83755601E+0
5.57683570E+2	9.18758400E-1	4.84545021E+0
5.56906648E+2	9.20274300E-1	4.85317727E+0
5.57402455E+2	9.21992300E-1	4.86104661E+0
5.57630928E+2	9.23488700E-1	4.86985298E+0
5.58270017E+2	9.24958000E-1	4.87769527E+0
5.57411684E+2	9.26477700E-1	4.88558277E+0
5.57062668E+2	9.27904200E-1	4.89343096E+0
5.56667408E+2	9.29630000E-1	4.90125138E+0
5.56665640E+2	9.31208000E-1	4.91017312E+0
5.56065713E+2	9.32739500E-1	4.91768418E+0
5.56234840E+2	9.34134900E-1	4.92555782E+0
5.56242045E+2	9.35732500E-1	4.93335029E+0
5.57213219E+2	9.37217200E-1	4.94217405E+0
5.57378654E+2	9.38764200E-1	4.94998759E+0
5.56311244E+2	9.40342200E-1	4.95784785E+0
5.56547314E+2	9.41683200E-1	4.96569359E+0
5.56496342E+2	9.43479000E-1	4.97355072E+0
5.55997021E+2	9.45014300E-1	4.98224219E+0
5.55994139E+2	9.46374700E-1	4.99017989E+0
5.57318652E+2	9.47952800E-1	4.99792487E+0
5.57162833E+2	9.49546400E-1	5.00577664E+0
5.57584532E+2	9.51190600E-1	5.01459007E+0
5.57818770E+2	9.52578200E-1	5.02239382E+0
5.57712008E+2	9.54125200E-1	5.03028713E+0
5.56962328E+2	9.55827600E-1	5.03813935E+0
5.56646048E+2	9.57145300E-1	5.04678893E+0
5.57096648E+2	9.58626200E-1	5.05456830E+0
5.57846958E+2	9.60134300E-1	5.06241699E+0
5.56559368E+2	9.61700700E-1	5.07022882E+0
5.55979401E+2	9.63329300E-1	5.07804236E+0
5.56001015E+2	9.64915200E-1	5.08680826E+0
5.56874838E+2	9.66357100E-1	5.09460659E+0
5.57173797E+2	9.67880800E-1	5.10241131E+0
5.57381100E+2	9.69427900E-1	5.11029922E+0
5.57319681E+2	9.70978600E-1	5.11904852E+0
5.56946980E+2	9.72774400E-1	5.12693325E+0
5.56747413E+2	9.74076600E-1	5.13574212E+0
5.56309331E+2	9.75817900E-1	5.14359358E+0
5.56583870E+2	9.77252100E-1	5.15133537E+0
5.57969217E+2	9.78818500E-1	5.15924795E+0
5.58461468E+2	9.80050700E-1	5.16773915E+0
5.58116910E+2	9.80039000E-1	5.17456880E+0
5.57505648E+2	9.80213900E-1	5.17453289E+0
5.57451164E+2	9.80027400E-1	5.17450910E+0
5.56944188E+2	9.80159600E-1	5.17452068E+0
5.56760517E+2	9.80202300E-1	5.17451245E+0
5.56449078E+2	9.80217800E-1	5.17452126E+0
5.56169944E+2	9.80054600E-1	5.17452703E+0
5.55629782E+2	9.80035100E-1	5.17450950E+0
5.55641805E+2	9.80217800E-1	5.17451057E+0
5.55698946E+2	9.80163400E-1	5.17444493E+0
5.55083091E+2	9.80066200E-1	5.17442172E+0
