# Begin of measurement: 19.07.2019 14:59:25
# R-Sample[Ohm]	I-Coil[A]	U-Magnetometer[V]
# Kei2000	HP E3631A +6V : I	Kei2000
5.36390867E+2	-1.81711800E-2	-1.78877414E-1
5.36436886E+2	-1.79807300E-2	-1.78906257E-1
5.36607859E+2	-1.79885000E-2	-1.78880813E-1
5.36544549E+2	-1.81673000E-2	-1.78880455E-1
5.36951201E+2	-1.79846100E-2	-1.78882691E-1
5.36919366E+2	-1.80196000E-2	-1.78910506E-1
5.36410170E+2	-1.81750700E-2	-1.78897493E-1
5.36007382E+2	-1.65231500E-2	-1.78933669E-1
5.35580377E+2	-1.50266900E-2	-1.70733184E-1
5.35655079E+2	-1.35535700E-2	-1.62567490E-1
5.35572047E+2	-1.23680700E-2	-1.54403948E-1
5.36363962E+2	-1.07433500E-2	-1.47276067E-1
5.36632059E+2	-9.39848700E-3	-1.39118511E-1
5.36561749E+2	-7.94867800E-3	-1.30957735E-1
5.35863358E+2	-6.43668100E-3	-1.22829334E-1
5.36303601E+2	-4.97521200E-3	-1.14691185E-1
5.36102639E+2	-3.29219100E-3	-1.06450543E-1
5.36344081E+2	-1.77241900E-3	-9.83564857E-2
5.35774111E+2	-3.26498300E-4	-9.01439263E-2
5.36085229E+2	1.10776200E-3	-8.19804224E-2
5.35708611E+2	2.26994100E-3	-7.37920106E-2
5.36126430E+2	3.72752200E-3	-6.69941846E-2
5.36871201E+2	5.20842500E-3	-5.88013011E-2
5.37395648E+2	6.86423800E-3	-5.06876133E-2
5.36316631E+2	8.36457500E-3	-4.24959823E-2
5.35811698E+2	9.82604400E-3	-3.42693374E-2
5.36510366E+2	1.12836300E-2	-2.60692548E-2
5.37445067E+2	1.26673600E-2	-1.79102678E-2
5.37202273E+2	1.41910100E-2	-9.72301923E-3
5.36731681E+2	1.54659100E-2	-1.60204243E-3
5.36038783E+2	1.69545900E-2	5.55305655E-3
5.36575722E+2	1.83849600E-2	1.37052409E-2
5.36760067E+2	1.99008500E-2	2.19197174E-2
5.35719594E+2	2.14206200E-2	3.01169327E-2
5.35615668E+2	2.28704300E-2	3.82256959E-2
5.36336169E+2	2.44368400E-2	4.64173215E-2
5.35396154E+2	2.59371800E-2	5.46039834E-2
5.36019393E+2	2.72781500E-2	6.24739075E-2
5.35975811E+2	2.89106500E-2	7.06491664E-2
5.36555913E+2	3.04615100E-2	7.88680699E-2
5.37399791E+2	3.17286400E-2	8.70186891E-2
5.37670412E+2	3.31046000E-2	9.42061269E-2
5.37541631E+2	3.46710100E-2	1.02371996E-1
5.36377420E+2	3.61247000E-2	1.10590414E-1
5.35458041E+2	3.75822900E-2	1.18704409E-1
5.35192261E+2	3.91642500E-2	1.26802083E-1
5.35419294E+2	4.07034500E-2	1.34960439E-1
5.35265477E+2	4.20638600E-2	1.43164318E-1
5.36166182E+2	4.34825800E-2	1.51392478E-1
5.36750517E+2	4.49751400E-2	1.59562103E-1
5.36734802E+2	4.64715900E-2	1.67771572E-1
5.36391234E+2	4.78825300E-2	1.75942896E-1
5.35883718E+2	4.93867500E-2	1.83086064E-1
5.36070181E+2	5.07510500E-2	1.91206007E-1
5.35507820E+2	5.24068600E-2	1.99367716E-1
5.36242685E+2	5.38450100E-2	2.07560416E-1
5.36415235E+2	5.53686700E-2	2.15747749E-1
5.35830159E+2	5.67251900E-2	2.23998492E-1
5.36236854E+2	5.82410800E-2	2.32112220E-1
5.36700647E+2	5.98463600E-2	2.40295036E-1
5.36945197E+2	6.12534100E-2	2.48402458E-1
5.36510132E+2	6.28392600E-2	2.56571055E-1
5.35278197E+2	6.40403000E-2	2.64791792E-1
5.35762631E+2	6.56378200E-2	2.71915820E-1
5.36146826E+2	6.69749000E-2	2.80061298E-1
5.36398400E+2	6.86229400E-2	2.88350051E-1
5.36443879E+2	6.99950200E-2	2.96492085E-1
5.36850486E+2	7.14681400E-2	3.04641542E-1
5.36056634E+2	7.30734300E-2	3.12840100E-1
5.36094007E+2	7.43794200E-2	3.21034632E-1
5.36734583E+2	7.59030800E-2	3.28844322E-1
5.36958645E+2	7.75239100E-2	3.37047485E-1
5.36872460E+2	7.89504000E-2	3.45241705E-1
5.35867784E+2	8.03613400E-2	3.53463024E-1
5.36416321E+2	8.19044300E-2	3.61576349E-1
5.35932715E+2	8.30860400E-2	3.69720216E-1
5.36033309E+2	8.48351400E-2	3.76878856E-1
5.35909751E+2	8.61100300E-2	3.85134965E-1
5.35723558E+2	8.75715100E-2	3.93143650E-1
5.35587887E+2	8.90407500E-2	4.01313677E-1
5.35740443E+2	9.06188200E-2	4.09412782E-1
5.35161512E+2	9.20297500E-2	4.17572614E-1
5.35313893E+2	9.35262100E-2	4.25768399E-1
5.35853983E+2	9.50498700E-2	4.33921970E-1
5.36175937E+2	9.66823700E-2	4.42092534E-1
5.36185078E+2	9.80971800E-2	4.50335049E-1
5.36512300E+2	9.96441700E-2	4.58309674E-1
5.37326416E+2	1.01035700E-1	4.66447638E-1
5.36909226E+2	1.02532100E-1	4.74646597E-1
5.37713369E+2	1.03884800E-1	4.82854589E-1
5.37575897E+2	1.05365700E-1	4.90962861E-1
5.37014301E+2	1.06873800E-1	4.98114032E-1
5.37309643E+2	1.08191400E-1	5.06337899E-1
5.37755200E+2	1.09765600E-1	5.14473046E-1
5.37553382E+2	1.11203800E-1	5.22579260E-1
5.36589021E+2	1.12805200E-1	5.30670315E-1
5.36111638E+2	1.14188900E-1	5.38884692E-1
5.36113574E+2	1.15809700E-1	5.47069004E-1
5.36299632E+2	1.17341100E-1	5.55256246E-1
5.36392210E+2	1.18775400E-1	5.63384327E-1
5.35917385E+2	1.20128000E-1	5.71604885E-1
5.36849793E+2	1.21678900E-1	5.79820166E-1
5.36799374E+2	1.23198700E-1	5.87669474E-1
5.35911187E+2	1.24598000E-1	5.95839769E-1
5.36307438E+2	1.26203300E-1	6.03972724E-1
5.36554329E+2	1.27684200E-1	6.12190599E-1
5.36307573E+2	1.28924100E-1	6.20301418E-1
5.35813520E+2	1.30447700E-1	6.27426340E-1
5.35502643E+2	1.31831500E-1	6.35562962E-1
5.35235534E+2	1.33355100E-1	6.43748237E-1
5.35397952E+2	1.34789400E-1	6.51847385E-1
5.36167624E+2	1.36437400E-1	6.60059714E-1
5.35535649E+2	1.37906700E-1	6.68205093E-1
5.36119894E+2	1.39364200E-1	6.76411574E-1
5.37063872E+2	1.40748000E-1	6.84584506E-1
5.37379173E+2	1.42182200E-1	6.92783643E-1
5.36561276E+2	1.43772000E-1	7.00993513E-1
5.36578477E+2	1.45245100E-1	7.09081436E-1
5.35730860E+2	1.46706600E-1	7.17229148E-1
5.36000986E+2	1.48273000E-1	7.25400739E-1
5.35358424E+2	1.49703400E-1	7.33567992E-1
5.35864267E+2	1.51199800E-1	7.41731176E-1
5.36471701E+2	1.52777900E-1	7.49870391E-1
5.37559545E+2	1.54317100E-1	7.58032233E-1
5.36960216E+2	1.55646400E-1	7.66178782E-1
5.37703006E+2	1.56999000E-1	7.73312200E-1
5.37086205E+2	1.58460500E-1	7.81391895E-1
5.36998764E+2	1.59949200E-1	7.89544436E-1
5.37004167E+2	1.61484500E-1	7.97706904E-1
5.36955266E+2	1.63008200E-1	8.05866421E-1
5.36193024E+2	1.64434600E-1	8.13989627E-1
5.36261288E+2	1.65950500E-1	8.22179150E-1
5.36471120E+2	1.67551900E-1	8.30312194E-1
5.36231371E+2	1.68842400E-1	8.38547016E-1
5.35307960E+2	1.70299900E-1	8.46333863E-1
5.35857262E+2	1.71839200E-1	8.54512654E-1
5.35788819E+2	1.73335600E-1	8.62626559E-1
5.35476952E+2	1.74828200E-1	8.70759112E-1
5.36305745E+2	1.76289600E-1	8.78991117E-1
5.35909135E+2	1.77774400E-1	8.87126102E-1
5.35743070E+2	1.79438000E-1	8.95248231E-1
5.36284717E+2	1.80545800E-1	9.03439499E-1
5.36702311E+2	1.82092800E-1	9.10469261E-1
5.36569882E+2	1.83519200E-1	9.18604273E-1
5.36842034E+2	1.85042900E-1	9.26760750E-1
5.38197211E+2	1.86722000E-1	9.34908403E-1
5.36842296E+2	1.88031900E-1	9.43032101E-1
5.37374982E+2	1.89637200E-1	9.51168231E-1
5.37725619E+2	1.91110300E-1	9.59340091E-1
5.37266824E+2	1.92400800E-1	9.67466964E-1
5.37053389E+2	1.94107100E-1	9.75462635E-1
5.37171994E+2	1.95634700E-1	9.83585081E-1
5.36741644E+2	1.96948400E-1	9.91728232E-1
5.37014191E+2	1.98413800E-1	9.99948835E-1
5.37125952E+2	1.99890800E-1	1.00798207E+0
5.37183228E+2	2.01453300E-1	1.01612301E+0
5.36966686E+2	2.02868200E-1	1.02424147E+0
5.36525768E+2	2.04353000E-1	1.03241485E+0
5.36574928E+2	2.05806600E-1	1.04041057E+0
5.36175844E+2	2.07310900E-1	1.04756183E+0
5.36462495E+2	2.08671300E-1	1.05571397E+0
5.36330787E+2	2.10261000E-1	1.06387304E+0
5.36629280E+2	2.11683600E-1	1.07200496E+0
5.35718625E+2	2.13242200E-1	1.08017204E+0
5.36028241E+2	2.14629900E-1	1.08827579E+0
5.36583211E+2	2.16040800E-1	1.09640785E+0
5.36213617E+2	2.17696600E-1	1.10423817E+0
5.36243651E+2	2.19162000E-1	1.11241558E+0
5.36455510E+2	2.20502900E-1	1.12045253E+0
5.36764630E+2	2.21987700E-1	1.12860825E+0
5.36337355E+2	2.23596900E-1	1.13673548E+0
5.36606839E+2	2.25101100E-1	1.14493783E+0
5.37191882E+2	2.26488800E-1	1.15298399E+0
5.37394690E+2	2.28136800E-1	1.16111091E+0
5.36581161E+2	2.29279500E-1	1.16918171E+0
5.36181579E+2	2.30713800E-1	1.17628042E+0
5.35891686E+2	2.32264700E-1	1.18437313E+0
5.36288204E+2	2.33838800E-1	1.19254794E+0
5.35980864E+2	2.35238100E-1	1.20068528E+0
5.35636352E+2	2.36750100E-1	1.20882991E+0
5.35814890E+2	2.38336000E-1	1.21693241E+0
5.36756074E+2	2.39785800E-1	1.22509161E+0
5.36126396E+2	2.41340500E-1	1.23315452E+0
5.38326890E+2	2.42790300E-1	1.24136530E+0
5.37646728E+2	2.44205200E-1	1.24939625E+0
5.36827616E+2	2.45666600E-1	1.25759315E+0
5.37026507E+2	2.47299100E-1	1.26568300E+0
5.36515795E+2	2.48659500E-1	1.27384601E+0
5.36731931E+2	2.50167600E-1	1.28193889E+0
5.36729635E+2	2.51559100E-1	1.29015337E+0
5.36057518E+2	2.52911800E-1	1.29813871E+0
5.36524034E+2	2.54427700E-1	1.30529198E+0
5.36323928E+2	2.55908600E-1	1.31340343E+0
5.36667224E+2	2.57405000E-1	1.32146247E+0
5.36291012E+2	2.58901500E-1	1.32961219E+0
5.36448521E+2	2.60359000E-1	1.33775950E+0
5.36293398E+2	2.61836100E-1	1.34587864E+0
5.36561182E+2	2.63410300E-1	1.35399465E+0
5.37307798E+2	2.64930000E-1	1.36922167E+0
5.37258222E+2	2.66376000E-1	1.36996197E+0
5.38022759E+2	2.67989000E-1	1.37803867E+0
5.38510957E+2	2.69400000E-1	1.38715029E+0
5.37985115E+2	2.70748700E-1	1.39526951E+0
5.38543154E+2	2.72268500E-1	1.40247109E+0
5.37687945E+2	2.73768800E-1	1.41058642E+0
5.37134591E+2	2.75366300E-1	1.41869715E+0
5.36709522E+2	2.76684000E-1	1.42683431E+0
5.36617754E+2	2.78269800E-1	1.43487278E+0
5.37227889E+2	2.79746800E-1	1.44299415E+0
5.37529751E+2	2.81204400E-1	1.45105292E+0
5.37116421E+2	2.82809700E-1	1.45920694E+0
5.36688471E+2	2.84313900E-1	1.46729245E+0
5.36912803E+2	2.85662700E-1	1.47545644E+0
5.37620424E+2	2.87163000E-1	1.48349200E+0
5.37777168E+2	2.88655600E-1	1.49167629E+0
5.37080488E+2	2.90085900E-1	1.49958651E+0
5.36446371E+2	2.91621300E-1	1.50772085E+0
5.36456818E+2	2.93160500E-1	1.51582952E+0
5.36969917E+2	2.94505300E-1	1.52389102E+0
5.36511077E+2	2.95994000E-1	1.53096828E+0
5.36843387E+2	2.97439900E-1	1.53906165E+0
5.36524766E+2	2.99002500E-1	1.54714689E+0
5.36037918E+2	3.00467800E-1	1.55529344E+0
5.36911425E+2	3.01847700E-1	1.56328835E+0
5.36462086E+2	3.03445200E-1	1.57139081E+0
5.37441004E+2	3.04863900E-1	1.57947225E+0
5.37187854E+2	3.06317600E-1	1.58757198E+0
5.37389536E+2	3.07876200E-1	1.59572148E+0
5.37482264E+2	3.09252200E-1	1.60383735E+0
5.37685993E+2	3.10915800E-1	1.61188194E+0
5.36787946E+2	3.12287800E-1	1.61997046E+0
5.35990673E+2	3.13729900E-1	1.62774375E+0
5.35778094E+2	3.15175800E-1	1.63588395E+0
5.36287410E+2	3.16691700E-1	1.64396177E+0
5.35889764E+2	3.18234800E-1	1.65207697E+0
5.36462273E+2	3.19602900E-1	1.66015690E+0
5.37058675E+2	3.21072200E-1	1.66726259E+0
5.37758327E+2	3.22463700E-1	1.67529641E+0
5.37245048E+2	3.23991300E-1	1.68342569E+0
5.36341687E+2	3.25460500E-1	1.69147932E+0
5.36319128E+2	3.26995800E-1	1.69954337E+0
5.36765276E+2	3.28488400E-1	1.70761059E+0
5.36763701E+2	3.29996500E-1	1.71573612E+0
5.37435481E+2	3.31535700E-1	1.72382561E+0
5.37213085E+2	3.32938900E-1	1.73192203E+0
5.37891889E+2	3.34450800E-1	1.74002892E+0
5.37231952E+2	3.35885100E-1	1.74813900E+0
5.36816195E+2	3.37346600E-1	1.75619084E+0
5.36706222E+2	3.38808100E-1	1.76432111E+0
5.36510033E+2	3.40390000E-1	1.77238109E+0
5.36836624E+2	3.41917500E-1	1.78045582E+0
5.37954140E+2	3.43355700E-1	1.78853090E+0
5.37941172E+2	3.44688900E-1	1.79660956E+0
5.37300237E+2	3.46107600E-1	1.80365908E+0
5.37185534E+2	3.47689600E-1	1.81172751E+0
5.36857862E+2	3.49085000E-1	1.81971768E+0
5.36785006E+2	3.50744700E-1	1.82777529E+0
5.36492456E+2	3.52221700E-1	1.83592278E+0
5.37739114E+2	3.53714300E-1	1.84389198E+0
5.37554993E+2	3.55195100E-1	1.85197172E+0
5.36028054E+2	3.56582800E-1	1.86014680E+0
5.37522144E+2	3.58083100E-1	1.86813317E+0
5.37192490E+2	3.59587300E-1	1.87618568E+0
5.36615270E+2	3.61134300E-1	1.88395123E+0
5.36118246E+2	3.62487000E-1	1.89202963E+0
5.36681597E+2	3.64084500E-1	1.90008903E+0
5.36720931E+2	3.65429300E-1	1.90815070E+0
5.37297102E+2	3.66953000E-1	1.91620509E+0
5.36900986E+2	3.68247300E-1	1.92427683E+0
5.36423234E+2	3.69704900E-1	1.93134670E+0
5.37807004E+2	3.71349000E-1	1.93939890E+0
5.37785571E+2	3.72864900E-1	1.94742028E+0
5.37466638E+2	3.74365300E-1	1.95544793E+0
5.36999528E+2	3.75663500E-1	1.96361469E+0
5.36436626E+2	3.77156000E-1	1.97162221E+0
5.35854048E+2	3.78675800E-1	1.97968988E+0
5.36229045E+2	3.80265600E-1	1.98776962E+0
5.36111836E+2	3.81641500E-1	1.99580733E+0
5.36456979E+2	3.83099100E-1	2.00385085E+0
5.36424944E+2	3.84661600E-1	2.01151525E+0
5.37146526E+2	3.86146400E-1	2.01954942E+0
5.36603257E+2	3.87526300E-1	2.02760846E+0
5.36094840E+2	3.89057700E-1	2.03564245E+0
5.36113301E+2	3.90659100E-1	2.04371863E+0
5.36545981E+2	3.91829000E-1	2.05181303E+0
5.36121178E+2	3.93329400E-1	2.05883219E+0
5.35609172E+2	3.94814200E-1	2.06688528E+0
5.36356915E+2	3.96411700E-1	2.07481075E+0
5.36587416E+2	3.97744900E-1	2.08290721E+0
5.37221058E+2	3.99299600E-1	2.09093365E+0
5.36930579E+2	4.00796100E-1	2.09897726E+0
5.35993711E+2	4.02409100E-1	2.10706666E+0
5.35751439E+2	4.03715100E-1	2.11505522E+0
5.36531423E+2	4.05242700E-1	2.12316778E+0
5.36032507E+2	4.06696400E-1	2.13115085E+0
5.36081092E+2	4.08282200E-1	2.13885428E+0
5.35959155E+2	4.09724200E-1	2.14692262E+0
5.35968746E+2	4.11158500E-1	2.15497415E+0
5.35689558E+2	4.12651100E-1	2.16307379E+0
5.36556357E+2	4.14264200E-1	2.17113671E+0
5.37026905E+2	4.15713900E-1	2.17916279E+0
5.37197023E+2	4.16934400E-1	2.18717796E+0
5.36709229E+2	4.18520300E-1	2.19421287E+0
5.37146140E+2	4.19869000E-1	2.20219083E+0
5.37426697E+2	4.21540400E-1	2.21029387E+0
5.37315785E+2	4.23056300E-1	2.21832652E+0
5.38426908E+2	4.24521600E-1	2.22635680E+0
5.39359449E+2	4.26025800E-1	2.23439818E+0
5.38956444E+2	4.27479600E-1	2.24241004E+0
5.37855902E+2	4.28863200E-1	2.25043513E+0
5.37697131E+2	4.30359700E-1	2.25848943E+0
5.37232032E+2	4.31817300E-1	2.26657342E+0
5.37191191E+2	4.33508100E-1	2.27458197E+0
5.37727165E+2	4.34833500E-1	2.28264816E+0
5.37540162E+2	4.36318300E-1	2.29065286E+0
5.37273818E+2	4.37799200E-1	2.29870505E+0
5.37135671E+2	4.39334500E-1	2.30669030E+0
5.37830350E+2	4.40574500E-1	2.31474522E+0
5.36552081E+2	4.42102000E-1	2.32167933E+0
5.36592787E+2	4.43579000E-1	2.32971909E+0
5.36116791E+2	4.45098800E-1	2.33775818E+0
5.35667226E+2	4.46704100E-1	2.34579768E+0
5.35598153E+2	4.48177200E-1	2.35378955E+0
5.35927129E+2	4.49483200E-1	2.36176545E+0
5.36583181E+2	4.51131200E-1	2.36980557E+0
5.36271854E+2	4.52654900E-1	2.37781050E+0
5.36084896E+2	4.53941400E-1	2.38587423E+0
5.36129744E+2	4.55655600E-1	2.39352803E+0
5.35551758E+2	4.57047100E-1	2.40158090E+0
5.36374560E+2	4.58411400E-1	2.40959262E+0
5.36384402E+2	4.59884500E-1	2.41765832E+0
5.35690603E+2	4.61322600E-1	2.42570808E+0
5.36301055E+2	4.63040600E-1	2.43371484E+0
5.37365709E+2	4.64362200E-1	2.44166087E+0
5.36349685E+2	4.65847000E-1	2.44877077E+0
5.36300154E+2	4.67300700E-1	2.45677454E+0
5.35935551E+2	4.68668800E-1	2.46475478E+0
5.35667541E+2	4.70180800E-1	2.47275032E+0
5.36499848E+2	4.71638400E-1	2.48078172E+0
5.35555736E+2	4.73333100E-1	2.48876836E+0
5.35820098E+2	4.74825700E-1	2.49676698E+0
5.36405604E+2	4.76294900E-1	2.50482883E+0
5.35611886E+2	4.77756400E-1	2.51283731E+0
5.35998456E+2	4.79221700E-1	2.52085279E+0
5.35969818E+2	4.80733800E-1	2.52878313E+0
5.36102112E+2	4.82105800E-1	2.53670841E+0
5.36287989E+2	4.83571200E-1	2.54470087E+0
5.35948654E+2	4.85118200E-1	2.55269452E+0
5.36800044E+2	4.86707900E-1	2.56078079E+0
5.37181196E+2	4.87885600E-1	2.56873734E+0
5.38042366E+2	4.89269400E-1	2.57579133E+0
5.36816826E+2	4.90761900E-1	2.58374493E+0
5.36366000E+2	4.92305000E-1	2.59162335E+0
5.36270405E+2	4.93879200E-1	2.59969137E+0
5.36737666E+2	4.95329000E-1	2.60766021E+0
5.37565920E+2	4.96782700E-1	2.61561492E+0
5.37745313E+2	4.98372400E-1	2.62365061E+0
5.37763505E+2	4.99779500E-1	2.63161587E+0
5.37279043E+2	5.01229300E-1	2.63963055E+0
5.37152648E+2	5.02686900E-1	2.64760189E+0
5.37200559E+2	5.04350400E-1	2.65528964E+0
5.37572270E+2	5.05831400E-1	2.66330190E+0
5.37176481E+2	5.07312300E-1	2.67129869E+0
5.37604026E+2	5.08641500E-1	2.67925868E+0
5.37796388E+2	5.10153600E-1	2.68730254E+0
5.36660544E+2	5.11774400E-1	2.69532250E+0
5.36602908E+2	5.12963800E-1	2.70328861E+0
5.37336161E+2	5.14468000E-1	2.71034695E+0
5.37425962E+2	5.15933300E-1	2.71828444E+0
5.37141202E+2	5.17538700E-1	2.72620373E+0
5.36801777E+2	5.18992400E-1	2.73416443E+0
5.37230223E+2	5.20372200E-1	2.74216878E+0
5.36484101E+2	5.21958100E-1	2.75019634E+0
5.35929530E+2	5.23411800E-1	2.75815905E+0
5.36270243E+2	5.25020900E-1	2.76615526E+0
5.36421944E+2	5.26548400E-1	2.77412267E+0
5.36781046E+2	5.27831100E-1	2.78207697E+0
5.37131998E+2	5.29514100E-1	2.79006652E+0
5.36792888E+2	5.30917300E-1	2.79804547E+0
5.37384337E+2	5.32460400E-1	2.80602347E+0
5.37529059E+2	5.34038500E-1	2.81404155E+0
5.37173334E+2	5.35371700E-1	2.82203127E+0
5.36827605E+2	5.36673800E-1	2.82998889E+0
5.37174505E+2	5.38135200E-1	2.83697697E+0
5.37681841E+2	5.39713300E-1	2.84490169E+0
5.36852596E+2	5.41108800E-1	2.85284879E+0
5.37418199E+2	5.42581800E-1	2.86084647E+0
5.37113491E+2	5.44226000E-1	2.86872391E+0
5.37231241E+2	5.45726300E-1	2.87675379E+0
5.38097273E+2	5.47218900E-1	2.88476087E+0
5.36547033E+2	5.48676500E-1	2.89272085E+0
5.36426672E+2	5.49990200E-1	2.90066729E+0
5.36132811E+2	5.51607200E-1	2.90836420E+0
5.37343699E+2	5.53064800E-1	2.91635795E+0
5.37235720E+2	5.54588500E-1	2.92431047E+0
5.36939163E+2	5.55995500E-1	2.93232188E+0
5.36916558E+2	5.57600700E-1	2.94032913E+0
5.36491940E+2	5.59089400E-1	2.94823170E+0
5.36320516E+2	5.60465400E-1	2.95626127E+0
5.36238790E+2	5.61825800E-1	2.96426258E+0
5.35707589E+2	5.63229000E-1	2.97120324E+0
5.36036882E+2	5.64900400E-1	2.97921952E+0
5.35494469E+2	5.66326800E-1	2.98716340E+0
5.35992844E+2	5.67885400E-1	2.99507617E+0
5.35329395E+2	5.69300300E-1	3.00307663E+0
5.35877772E+2	5.70711200E-1	3.01101560E+0
5.36738887E+2	5.72149400E-1	3.01899548E+0
5.36879105E+2	5.73622500E-1	3.02697197E+0
5.37707719E+2	5.75154000E-1	3.03473744E+0
5.37114469E+2	5.76790300E-1	3.04273136E+0
5.38094649E+2	5.78111800E-1	3.05073437E+0
5.38131139E+2	5.79794900E-1	3.05868886E+0
5.37872536E+2	5.81221300E-1	3.06665685E+0
5.38304945E+2	5.82644000E-1	3.07461138E+0
5.36807928E+2	5.84117100E-1	3.08259109E+0
5.36280419E+2	5.85613500E-1	3.09058385E+0
5.37256727E+2	5.86888500E-1	3.09738332E+0
5.36769113E+2	5.88482100E-1	3.10538809E+0
5.36278265E+2	5.90025100E-1	3.11332965E+0
5.36403714E+2	5.91443800E-1	3.12132005E+0
5.36440908E+2	5.93006400E-1	3.12933602E+0
5.36858187E+2	5.94386200E-1	3.13731148E+0
5.36286100E+2	5.95836100E-1	3.14520173E+0
5.36350671E+2	5.97293600E-1	3.15315050E+0
5.36950247E+2	5.98918300E-1	3.16076285E+0
5.36411481E+2	6.00232100E-1	3.16878302E+0
5.35917383E+2	6.01759700E-1	3.17670142E+0
5.36038420E+2	6.03162800E-1	3.18464340E+0
5.36625817E+2	6.04884700E-1	3.19259669E+0
5.37187908E+2	6.06420000E-1	3.20059084E+0
5.35991608E+2	6.07714400E-1	3.20850910E+0
5.36224287E+2	6.09179700E-1	3.21546173E+0
5.35617033E+2	6.10641200E-1	3.22331126E+0
5.35758017E+2	6.12001600E-1	3.23126731E+0
5.36009546E+2	6.13447500E-1	3.23922815E+0
5.35599246E+2	6.14967300E-1	3.24722190E+0
5.36319252E+2	6.16650300E-1	3.25516628E+0
5.35598278E+2	6.18205100E-1	3.26306375E+0
5.36204496E+2	6.19448900E-1	3.27105092E+0
5.36641678E+2	6.20960900E-1	3.27895855E+0
5.36629611E+2	6.22437900E-1	3.28689219E+0
5.36464716E+2	6.23973200E-1	3.29487297E+0
5.36286043E+2	6.25454100E-1	3.30280175E+0
5.35840640E+2	6.27082700E-1	3.31076066E+0
5.35684891E+2	6.28579100E-1	3.31872888E+0
5.35997569E+2	6.29927900E-1	3.32662952E+0
5.36114192E+2	6.31307700E-1	3.33458159E+0
5.35495861E+2	6.32812000E-1	3.34152903E+0
5.36491081E+2	6.34187900E-1	3.34933724E+0
5.36808811E+2	6.35863200E-1	3.35733663E+0
5.36317834E+2	6.37223600E-1	3.36525020E+0
5.35869170E+2	6.38844400E-1	3.37320044E+0
5.36421805E+2	6.40302000E-1	3.38116324E+0
5.35619532E+2	6.41755700E-1	3.38909792E+0
5.36052842E+2	6.43116100E-1	3.39700540E+0
5.37256499E+2	6.44690300E-1	3.40491884E+0
5.37985860E+2	6.46031300E-1	3.41261392E+0
5.37675703E+2	6.47710400E-1	3.42051756E+0
5.36742082E+2	6.49214600E-1	3.42841168E+0
5.36593803E+2	6.50660600E-1	3.43644981E+0
5.36358665E+2	6.52048200E-1	3.44434212E+0
5.36113529E+2	6.53525200E-1	3.45222738E+0
5.36083180E+2	6.55289800E-1	3.46014537E+0
5.36731681E+2	6.56720200E-1	3.46910678E+0
5.36426342E+2	6.58313800E-1	3.47692787E+0
5.36663282E+2	6.59674200E-1	3.48486049E+0
5.37096322E+2	6.61213400E-1	3.49274870E+0
5.37740004E+2	6.62845900E-1	3.50068870E+0
5.38115857E+2	6.64326900E-1	3.50964862E+0
5.37356097E+2	6.66029300E-1	3.51746929E+0
5.37162970E+2	6.67490800E-1	3.52552343E+0
5.36477096E+2	6.69134900E-1	3.53349603E+0
5.36449494E+2	6.70507000E-1	3.54228102E+0
5.35558965E+2	6.71914100E-1	3.55017205E+0
5.35691199E+2	6.73449300E-1	3.55810485E+0
5.35479506E+2	6.75140100E-1	3.56611469E+0
5.35502921E+2	6.76648300E-1	3.57403569E+0
5.35569338E+2	6.78098100E-1	3.58296006E+0
5.35240405E+2	6.79633400E-1	3.59077874E+0
5.34885310E+2	6.81219200E-1	3.59870563E+0
5.34633416E+2	6.82875100E-1	3.60653870E+0
5.35103554E+2	6.84414300E-1	3.61549733E+0
5.35277634E+2	6.85798000E-1	3.62336207E+0
5.35527992E+2	6.87228400E-1	3.63129155E+0
5.35612556E+2	6.88965800E-1	3.63922650E+0
5.35993046E+2	6.90392300E-1	3.64811705E+0
5.36342321E+2	6.92009200E-1	3.65608232E+0
5.36249387E+2	6.93377400E-1	3.66399978E+0
5.36225883E+2	6.95192600E-1	3.67156173E+0
5.35643214E+2	6.96490800E-1	3.68046110E+0
5.35906451E+2	6.98166100E-1	3.68840096E+0
5.35825534E+2	6.99654700E-1	3.69636927E+0
5.36643281E+2	7.00968500E-1	3.70420444E+0
5.36629591E+2	7.02686500E-1	3.71217109E+0
5.36683040E+2	7.04113000E-1	3.72101041E+0
5.36566191E+2	7.05768800E-1	3.72884295E+0
5.36001399E+2	7.07273000E-1	3.73675182E+0
5.35985279E+2	7.08820000E-1	3.74464643E+0
5.36168140E+2	7.10460200E-1	3.75360126E+0
5.36777973E+2	7.11824600E-1	3.76154778E+0
5.37125457E+2	7.13293800E-1	3.76945500E+0
5.37659405E+2	7.14836900E-1	3.77733145E+0
5.37913185E+2	7.16547200E-1	3.78526586E+0
5.37471681E+2	7.17950300E-1	3.79411587E+0
5.37660665E+2	7.19501200E-1	3.80202845E+0
5.36681702E+2	7.21013100E-1	3.80996268E+0
5.36768426E+2	7.22622300E-1	3.81787428E+0
5.37217000E+2	7.24219800E-1	3.82572377E+0
5.37874145E+2	7.25829000E-1	3.83468025E+0
5.37252347E+2	7.27096100E-1	3.84257696E+0
5.37110823E+2	7.28553700E-1	3.85047058E+0
5.37571701E+2	7.30469900E-1	3.85828228E+0
5.37472188E+2	7.31779800E-1	3.86717374E+0
5.37217822E+2	7.33311200E-1	3.87508740E+0
5.36793023E+2	7.34893200E-1	3.88297374E+0
5.36445899E+2	7.36428500E-1	3.89087545E+0
5.37248937E+2	7.37983300E-1	3.89880186E+0
5.37169263E+2	7.39573000E-1	3.90767762E+0
5.37602567E+2	7.40995600E-1	3.91558886E+0
5.37720767E+2	7.42336600E-1	3.92319093E+0
5.37481801E+2	7.44186800E-1	3.93108741E+0
5.36770306E+2	7.45531600E-1	3.93997764E+0
5.36474964E+2	7.47109700E-1	3.94785243E+0
5.36636211E+2	7.48567300E-1	3.95574740E+0
5.36690696E+2	7.49993800E-1	3.96358204E+0
5.36491535E+2	7.51688400E-1	3.97149936E+0
5.36924438E+2	7.53161600E-1	3.98042284E+0
5.37000717E+2	7.54801800E-1	3.98822765E+0
5.36771477E+2	7.56138900E-1	3.99614417E+0
5.36581466E+2	7.57818000E-1	4.00398843E+0
5.36411310E+2	7.59458300E-1	4.01284237E+0
5.36813729E+2	7.60811000E-1	4.02079346E+0
5.36729796E+2	7.62474500E-1	4.02870734E+0
5.36926705E+2	7.63924400E-1	4.03658361E+0
5.36776716E+2	7.65257500E-1	4.04413898E+0
5.36568414E+2	7.66750100E-1	4.05200989E+0
5.36901219E+2	7.68203800E-1	4.05989260E+0
5.36552069E+2	7.69711900E-1	4.06782347E+0
5.38163772E+2	7.71503800E-1	4.07568762E+0
5.38729284E+2	7.72984700E-1	4.08459089E+0
5.37311519E+2	7.74411200E-1	4.09246801E+0
5.37018609E+2	7.75861000E-1	4.10036204E+0
5.36114858E+2	7.77536200E-1	4.10817414E+0
5.35493645E+2	7.78982200E-1	4.11710317E+0
5.35842165E+2	7.80673000E-1	4.12499478E+0
5.36106122E+2	7.82196600E-1	4.13291510E+0
5.36328427E+2	7.83553100E-1	4.14081619E+0
5.36225585E+2	7.85298300E-1	4.14866742E+0
5.36453224E+2	7.86814200E-1	4.15749239E+0
5.35812109E+2	7.88201800E-1	4.16536589E+0
5.37356224E+2	7.89776000E-1	4.17295060E+0
5.37278325E+2	7.91288000E-1	4.18085657E+0
5.37377478E+2	7.92877700E-1	4.18970579E+0
5.37305027E+2	7.94292600E-1	4.19763293E+0
5.37084744E+2	7.95785100E-1	4.20552843E+0
5.37278276E+2	7.97441000E-1	4.21341486E+0
5.37454247E+2	7.98949100E-1	4.22226862E+0
5.36620140E+2	8.00585500E-1	4.23012938E+0
5.36648463E+2	8.01992500E-1	4.23793294E+0
5.37224782E+2	8.03422800E-1	4.24584610E+0
5.36653844E+2	8.05222500E-1	4.25366970E+0
5.36374983E+2	8.06645100E-1	4.26259345E+0
5.36551224E+2	8.08227100E-1	4.27039044E+0
5.36755383E+2	8.09696300E-1	4.27829899E+0
5.36856742E+2	8.11332700E-1	4.28613037E+0
5.36440994E+2	8.12681500E-1	4.29499760E+0
5.36076376E+2	8.14251700E-1	4.30282030E+0
5.36465241E+2	8.15752100E-1	4.31070278E+0
5.37308399E+2	8.17442900E-1	4.31856779E+0
5.36389278E+2	8.18884900E-1	4.32747861E+0
5.36372573E+2	8.20459100E-1	4.33532010E+0
5.36815788E+2	8.22021600E-1	4.34318157E+0
5.36270358E+2	8.23483100E-1	4.35106374E+0
5.36231544E+2	8.25092200E-1	4.35886592E+0
5.37397420E+2	8.26596500E-1	4.36772608E+0
5.37767104E+2	8.28201800E-1	4.37562551E+0
5.37375581E+2	8.29457200E-1	4.38346749E+0
5.36648507E+2	8.31186900E-1	4.39862165E+0
5.36696012E+2	8.32873800E-1	4.40022960E+0
5.36419267E+2	8.34207000E-1	4.40809210E+0
5.36592042E+2	8.35750100E-1	4.41598962E+0
5.36044181E+2	8.37122200E-1	4.42349634E+0
5.36524364E+2	8.38937400E-1	4.43140320E+0
5.37210597E+2	8.40313300E-1	4.44022021E+0
5.36489029E+2	8.41910700E-1	4.44812980E+0
5.37060876E+2	8.43345100E-1	4.45595478E+0
5.36445293E+2	8.44997000E-1	4.46382122E+0
5.36419807E+2	8.46458400E-1	4.47270941E+0
5.37206273E+2	8.47951000E-1	4.48057580E+0
5.37093027E+2	8.49595200E-1	4.48836139E+0
5.37003322E+2	8.51278200E-1	4.49623203E+0
5.36273084E+2	8.52658100E-1	4.50511280E+0
5.37308468E+2	8.54158400E-1	4.51294311E+0
5.37209091E+2	8.55732500E-1	4.52083763E+0
5.37400732E+2	8.57131900E-1	4.52869874E+0
5.36988451E+2	8.58803200E-1	4.53652573E+0
5.36506060E+2	8.60354000E-1	4.54543276E+0
5.36405010E+2	8.61706700E-1	4.55316786E+0
5.37283380E+2	8.63230300E-1	4.56103255E+0
5.37074808E+2	8.64905600E-1	4.56880257E+0
5.37043018E+2	8.66464200E-1	4.57760983E+0
5.36423427E+2	8.67995600E-1	4.58556490E+0
5.36547705E+2	8.69398900E-1	4.59336792E+0
5.36716647E+2	8.70938100E-1	4.60124048E+0
5.36136320E+2	8.72574400E-1	4.61704191E+0
5.35714493E+2	8.74160300E-1	4.61790380E+0
5.36452735E+2	8.75610200E-1	4.62576080E+0
5.37417245E+2	8.77153200E-1	4.63367978E+0
5.37078901E+2	8.78851800E-1	4.64147722E+0
5.37224163E+2	8.80258800E-1	4.65039399E+0
5.37765180E+2	8.81751300E-1	4.65823127E+0
5.38084476E+2	8.83247800E-1	4.66609766E+0
5.37012304E+2	8.84798700E-1	4.67364222E+0
5.37048011E+2	8.86466100E-1	4.68248610E+0
5.37427376E+2	8.87830400E-1	4.69032968E+0
5.36723564E+2	8.89427900E-1	4.69817609E+0
5.38226929E+2	8.90866100E-1	4.70606560E+0
5.37881291E+2	8.92459800E-1	4.71385749E+0
5.38270922E+2	8.93960100E-1	4.72268684E+0
5.37806409E+2	8.95619800E-1	4.73054710E+0
5.37335456E+2	8.96871400E-1	4.73829293E+0
5.36982551E+2	8.98624300E-1	4.74607405E+0
5.37118363E+2	9.00245200E-1	4.75496555E+0
5.36075144E+2	9.01594000E-1	4.76285390E+0
5.35939879E+2	9.03148700E-1	4.77068836E+0
5.37248000E+2	9.04831700E-1	4.77859343E+0
5.37417983E+2	9.06269800E-1	4.78746848E+0
5.36494044E+2	9.07824600E-1	4.79525447E+0
5.36825949E+2	9.09293800E-1	4.80304846E+0
5.36415244E+2	9.10910800E-1	4.81093734E+0
5.36427177E+2	9.12500500E-1	4.81875549E+0
5.36946220E+2	9.13973600E-1	4.82766873E+0
5.36727201E+2	9.15411800E-1	4.83548021E+0
5.37222649E+2	9.16927700E-1	4.84328972E+0
5.36683794E+2	9.18595100E-1	4.85114529E+0
5.37163932E+2	9.20060500E-1	4.85985881E+0
5.37246379E+2	9.21642500E-1	4.86776729E+0
5.37648618E+2	9.23115600E-1	4.88228383E+0
5.37470306E+2	9.24864700E-1	4.88342476E+0
5.38290454E+2	9.26205600E-1	4.89225630E+0
5.36805821E+2	9.27772100E-1	4.90013718E+0
5.36228826E+2	9.29361800E-1	4.90799968E+0
5.36855037E+2	9.30761100E-1	4.91581366E+0
5.36499988E+2	9.32370300E-1	4.92332517E+0
5.37030693E+2	9.33824000E-1	4.93218345E+0
5.36819530E+2	9.35417600E-1	4.93997212E+0
5.37157342E+2	9.36945200E-1	4.94782773E+0
5.37854158E+2	9.38503700E-1	4.95567718E+0
5.37670847E+2	9.40008000E-1	4.96452115E+0
5.37663688E+2	9.41508400E-1	4.97235834E+0
5.37289951E+2	9.43098100E-1	4.98020836E+0
5.37671297E+2	9.44497400E-1	4.98792566E+0
5.37468443E+2	9.46293100E-1	4.99581736E+0
5.37937955E+2	9.47630200E-1	5.00454583E+0
5.37141221E+2	9.49173300E-1	5.01238208E+0
5.37439895E+2	9.50770800E-1	5.02022122E+0
5.37298505E+2	9.52453800E-1	5.02806610E+0
5.37065258E+2	9.53829800E-1	5.03691200E+0
5.36565952E+2	9.55431200E-1	5.04473993E+0
5.36407272E+2	9.56791600E-1	5.05237947E+0
5.36923253E+2	9.58233600E-1	5.06026491E+0
5.36598823E+2	9.60072100E-1	5.06805648E+0
5.36490214E+2	9.61576300E-1	5.07688592E+0
5.37127457E+2	9.62944500E-1	5.08469337E+0
5.36978889E+2	9.64433200E-1	5.09256222E+0
5.36777067E+2	9.66104500E-1	5.10041703E+0
5.37529943E+2	9.67531000E-1	5.10927455E+0
5.38061594E+2	9.69229600E-1	5.11702731E+0
5.37417462E+2	9.70702700E-1	5.12485283E+0
5.35829128E+2	9.72234200E-1	5.13262491E+0
5.35462078E+2	9.73866700E-1	5.14144136E+0
5.35612592E+2	9.75382500E-1	5.14933059E+0
5.35784601E+2	9.76766200E-1	5.15709493E+0
5.37041030E+2	9.78177200E-1	5.16497197E+0
5.36856504E+2	9.79984600E-1	5.17245848E+0
5.36118487E+2	9.80163400E-1	5.18133778E+0
5.36333129E+2	9.80167300E-1	5.18224171E+0
5.36875099E+2	9.80085700E-1	5.18222757E+0
5.36406083E+2	9.80140100E-1	5.18219985E+0
5.36474346E+2	9.80066200E-1	5.18220141E+0
5.36834303E+2	9.80039000E-1	5.18216716E+0
5.36915400E+2	9.80167300E-1	5.18217284E+0
5.37505317E+2	9.80046800E-1	5.18214024E+0
5.37667825E+2	9.79949600E-1	5.18211779E+0
5.37157785E+2	9.80109000E-1	5.18212047E+0
5.36672771E+2	9.80007900E-1	5.18210634E+0
5.36869050E+2	9.80101200E-1	5.18211994E+0
5.36332400E+2	9.80004000E-1	5.18211489E+0
5.36609280E+2	9.80147800E-1	5.18212284E+0
5.36683262E+2	9.80178900E-1	5.18210688E+0
5.36799075E+2	9.80007900E-1	5.18215357E+0
5.37572620E+2	9.79984600E-1	5.18214105E+0
5.37648157E+2	9.80007900E-1	5.18208246E+0
5.37881267E+2	9.80225600E-1	5.18207781E+0
5.37443275E+2	9.80105100E-1	5.18207764E+0
5.36615651E+2	9.80058500E-1	5.18208157E+0
5.36341878E+2	9.80074000E-1	5.18206945E+0
5.36811840E+2	9.80167300E-1	5.18205125E+0
5.36040322E+2	9.80042800E-1	5.18202670E+0
5.35580627E+2	9.80023500E-1	5.18202907E+0
5.35886913E+2	9.80050700E-1	5.18202786E+0
5.36664107E+2	9.80035100E-1	5.18200738E+0
5.37029603E+2	9.80054600E-1	5.18202062E+0
5.36630606E+2	9.80015700E-1	5.18204244E+0
5.36568647E+2	9.80147800E-1	5.18202746E+0
5.36470125E+2	9.80155700E-1	5.18202496E+0
5.36377591E+2	9.80175100E-1	5.18200170E+0
5.36671222E+2	9.80167300E-1	5.18202178E+0
5.37248878E+2	9.80186700E-1	5.18197165E+0
