# Begin of measurement: 19.07.2019 15:26:02
# R-Sample[Ohm]	I-Coil[A]	U-Magnetometer[V]
# Kei2000	HP E3631A +6V : I	Kei2000
1.10028224E+3	2.87458400E-1	1.31748642E+0
1.10028925E+3	2.87454500E-1	1.31750816E+0
1.10030357E+3	2.87606100E-1	1.31751589E+0
1.10030663E+3	2.87543900E-1	1.31751597E+0
1.10031199E+3	2.87664400E-1	1.31753507E+0
1.10032401E+3	2.87524500E-1	1.31754235E+0
1.10033099E+3	2.87470100E-1	1.31756163E+0
1.10034485E+3	2.87680000E-1	1.31750926E+0
1.10034983E+3	2.87505100E-1	1.31748856E+0
1.10034844E+3	2.87462300E-1	1.31748637E+0
1.10032799E+3	2.87571100E-1	1.31750332E+0
1.10028792E+3	2.87528400E-1	1.31753305E+0
1.10022528E+3	2.87625600E-1	1.31748100E+0
1.10013464E+3	2.87668300E-1	1.31753019E+0
1.10000354E+3	2.87493400E-1	1.31756489E+0
1.09983131E+3	2.87454500E-1	1.31753583E+0
1.09963521E+3	2.87481700E-1	1.31752957E+0
1.09937868E+3	2.87586700E-1	1.31755349E+0
1.09909721E+3	2.87474000E-1	1.31755997E+0
1.09873280E+3	2.87672200E-1	1.31757791E+0
1.09839306E+3	2.87501200E-1	1.31753109E+0
1.09794439E+3	2.87458400E-1	1.31749978E+0
1.09743593E+3	2.87575000E-1	1.31755130E+0
1.09695399E+3	2.87458400E-1	1.31750408E+0
1.09634719E+3	2.87641100E-1	1.31750582E+0
1.09569648E+3	2.87664400E-1	1.31752138E+0
1.09501196E+3	2.87625600E-1	1.31753703E+0
1.09435779E+3	2.87508900E-1	1.31752639E+0
1.09360590E+3	2.87446800E-1	1.31752062E+0
1.09269993E+3	2.87512900E-1	1.31752089E+0
1.09183831E+3	2.87516700E-1	1.31751454E+0
1.09091910E+3	2.87621700E-1	1.31753126E+0
1.08997522E+3	2.87625600E-1	1.31754142E+0
1.08888796E+3	2.87536100E-1	1.31752724E+0
1.08782592E+3	2.87617800E-1	1.31752872E+0
1.08671219E+3	2.87485600E-1	1.31755705E+0
1.08553848E+3	2.87477900E-1	1.31753887E+0
1.08429349E+3	2.87462300E-1	1.31756136E+0
1.08318948E+3	2.87528400E-1	1.31753771E+0
1.08183241E+3	2.87497300E-1	1.31752501E+0
1.08055424E+3	2.87652800E-1	1.31752731E+0
1.07919348E+3	2.87613900E-1	1.31755268E+0
1.07772222E+3	2.87683800E-1	1.31748082E+0
1.07629581E+3	2.87497300E-1	1.31754423E+0
1.07479844E+3	2.87512900E-1	1.31751870E+0
1.07327679E+3	2.87512900E-1	1.31753507E+0
1.07155954E+3	2.87477900E-1	1.31750895E+0
1.06986418E+3	2.87466200E-1	1.31749254E+0
1.06818628E+3	2.87439000E-1	1.31748373E+0
1.06628820E+3	2.87567300E-1	1.31748114E+0
1.06440056E+3	2.87571100E-1	1.31749723E+0
1.06248191E+3	2.87474000E-1	1.31745518E+0
1.06071165E+3	2.87489500E-1	1.31746441E+0
1.05863309E+3	2.87590600E-1	1.31745904E+0
1.05675401E+3	2.87625600E-1	1.31745891E+0
1.05488916E+3	2.87466200E-1	1.31746852E+0
1.05311725E+3	2.87617800E-1	1.31750023E+0
1.05087312E+3	2.87466200E-1	1.31747948E+0
1.04866632E+3	2.87466200E-1	1.31747805E+0
1.04663590E+3	2.87439000E-1	1.31746289E+0
1.04465520E+3	2.87442900E-1	1.31746767E+0
1.04226491E+3	2.87520600E-1	1.31744173E+0
1.04027907E+3	2.87474000E-1	1.31744817E+0
1.03788203E+3	2.87454500E-1	1.31744343E+0
1.03598670E+3	2.87610000E-1	1.31746499E+0
1.03358832E+3	2.87641100E-1	1.31744370E+0
1.03106453E+3	2.87439000E-1	1.31750130E+0
1.02827497E+3	2.87474000E-1	1.31746257E+0
1.02573145E+3	2.87458400E-1	1.31749754E+0
1.02315682E+3	2.87652800E-1	1.31750331E+0
1.02092992E+3	2.87481700E-1	1.31749177E+0
1.01834986E+3	2.87442900E-1	1.31750666E+0
1.01627279E+3	2.87602300E-1	1.31750058E+0
1.01337152E+3	2.87676100E-1	1.31746736E+0
1.01061948E+3	2.87625600E-1	1.31745354E+0
1.00834735E+3	2.87586700E-1	1.31745394E+0
1.00615257E+3	2.87613900E-1	1.31745806E+0
1.00329016E+3	2.87617800E-1	1.31746158E+0
1.00036062E+3	2.87578900E-1	1.31748842E+0
9.97709705E+2	2.87633300E-1	1.31746987E+0
9.95004625E+2	2.87505100E-1	1.31747282E+0
9.91868939E+2	2.87617800E-1	1.31747908E+0
9.88931467E+2	2.87505100E-1	1.31750891E+0
9.85693542E+2	2.87571100E-1	1.31748825E+0
9.83405695E+2	2.87501200E-1	1.31752590E+0
9.80995010E+2	2.87528400E-1	1.31751695E+0
9.78688521E+2	2.87528400E-1	1.31752420E+0
9.75774014E+2	2.87617800E-1	1.31753453E+0
9.72467850E+2	2.87543900E-1	1.31751321E+0
9.68908831E+2	2.87629400E-1	1.31751821E+0
9.65643380E+2	2.87683800E-1	1.31756619E+0
9.62878683E+2	2.87501200E-1	1.31753901E+0
9.59533706E+2	2.87477900E-1	1.31755658E+0
9.57197950E+2	2.87477900E-1	1.31756992E+0
9.54568609E+2	2.87501200E-1	1.31755220E+0
9.50915724E+2	2.87501200E-1	1.31757496E+0
9.48148380E+2	2.87512900E-1	1.31757103E+0
9.44737525E+2	2.87501200E-1	1.31754778E+0
9.41594904E+2	2.87493400E-1	1.31761467E+0
9.38491367E+2	2.87493400E-1	1.31761146E+0
9.36181231E+2	2.87559500E-1	1.31759496E+0
9.33106648E+2	2.87505100E-1	1.31759903E+0
9.30196651E+2	2.87462300E-1	1.31756969E+0
9.27667273E+2	2.87442900E-1	1.31757779E+0
9.25465836E+2	2.87485600E-1	1.31758986E+0
9.21069312E+2	2.87516700E-1	1.31757238E+0
9.17036752E+2	2.87512900E-1	1.31758753E+0
9.12454485E+2	2.87505100E-1	1.31761526E+0
9.09716683E+2	2.87610000E-1	1.31761217E+0
9.07677767E+2	2.87532300E-1	1.31761017E+0
9.04656185E+2	2.87497300E-1	1.31762053E+0
9.00963590E+2	2.87442900E-1	1.31762518E+0
8.98168321E+2	2.87493400E-1	1.31761543E+0
8.96874746E+2	2.87621700E-1	1.31761020E+0
8.92968844E+2	2.87648900E-1	1.31759418E+0
8.88050322E+2	2.87598400E-1	1.31761088E+0
8.83983630E+2	2.87477900E-1	1.31760506E+0
8.81309080E+2	2.87547800E-1	1.31759603E+0
8.77871164E+2	2.87648900E-1	1.31758722E+0
8.75858396E+2	2.87648900E-1	1.31758288E+0
8.72312638E+2	2.87520600E-1	1.31760717E+0
8.69357659E+2	2.87543900E-1	1.31759898E+0
8.66725526E+2	2.87613900E-1	1.31759992E+0
8.64476314E+2	2.87575000E-1	1.31747288E+0
8.61321357E+2	2.87505100E-1	1.31757479E+0
8.57036053E+2	2.87617800E-1	1.31757658E+0
8.53938912E+2	2.87450600E-1	1.31759572E+0
8.50810502E+2	2.87505100E-1	1.31753003E+0
8.47203483E+2	2.87633300E-1	1.31761405E+0
8.44482552E+2	2.87512900E-1	1.31755650E+0
8.41301116E+2	2.87590600E-1	1.31753311E+0
8.38307988E+2	2.87466200E-1	1.31754867E+0
8.35124120E+2	2.87470100E-1	1.31752493E+0
8.32127345E+2	2.87474000E-1	1.31751165E+0
8.29645884E+2	2.87606100E-1	1.31754845E+0
8.25030203E+2	2.87645000E-1	1.31749313E+0
8.22894191E+2	2.87485600E-1	1.31753365E+0
8.20921677E+2	2.87446800E-1	1.31752288E+0
8.16862142E+2	2.87493400E-1	1.31752055E+0
8.12916799E+2	2.87645000E-1	1.31739185E+0
8.09363260E+2	2.87466200E-1	1.31748415E+0
8.06765653E+2	2.87501200E-1	1.31746465E+0
8.03542791E+2	2.87629400E-1	1.31749631E+0
7.99681741E+2	2.87571100E-1	1.31750566E+0
7.96549206E+2	2.87637200E-1	1.31748464E+0
7.93510645E+2	2.87594500E-1	1.31750642E+0
7.91159108E+2	2.87477900E-1	1.31749743E+0
7.89229012E+2	2.87466200E-1	1.31748236E+0
7.84984814E+2	2.87450600E-1	1.31750758E+0
7.82038650E+2	2.87648900E-1	1.31751027E+0
7.78173862E+2	2.87625600E-1	1.31752131E+0
7.75087884E+2	2.87512900E-1	1.31751465E+0
7.72661612E+2	2.87594500E-1	1.31753737E+0
7.69920796E+2	2.87512900E-1	1.31755190E+0
7.67516729E+2	2.87439000E-1	1.31752140E+0
7.65033412E+2	2.87489500E-1	1.31750302E+0
7.61473827E+2	2.87652800E-1	1.31750423E+0
7.57829903E+2	2.87625600E-1	1.31750938E+0
7.55126982E+2	2.87571100E-1	1.31751126E+0
7.52663694E+2	2.87598400E-1	1.31750799E+0
7.50783937E+2	2.87528400E-1	1.31749967E+0
7.47620015E+2	2.87474000E-1	1.31750616E+0
7.44337848E+2	2.87536100E-1	1.31755655E+0
7.41559774E+2	2.87477900E-1	1.31752525E+0
7.39047323E+2	2.87606100E-1	1.31753822E+0
7.37171294E+2	2.87489500E-1	1.31756044E+0
7.32961833E+2	2.87462300E-1	1.31756388E+0
7.30369862E+2	2.87474000E-1	1.31756809E+0
7.28419411E+2	2.87458400E-1	1.31757918E+0
7.25264945E+2	2.87508900E-1	1.31758794E+0
7.22443554E+2	2.87462300E-1	1.31759644E+0
7.17233325E+2	2.87617800E-1	1.31756782E+0
7.15826772E+2	2.87547800E-1	1.31757699E+0
7.12595351E+2	2.87446800E-1	1.31760234E+0
7.08703228E+2	2.87633300E-1	1.31765274E+0
7.06058933E+2	2.87633300E-1	1.31770354E+0
7.03923279E+2	2.87610000E-1	1.31773314E+0
7.03118306E+2	2.87610000E-1	1.31772433E+0
7.01792773E+2	2.87516700E-1	1.31776856E+0
6.97438119E+2	2.87621700E-1	1.31778229E+0
6.93644068E+2	2.87645000E-1	1.31781940E+0
6.89791885E+2	2.87493400E-1	1.31792753E+0
6.88541851E+2	2.87606100E-1	1.31794899E+0
6.85900078E+2	2.87508900E-1	1.31803752E+0
6.83545224E+2	2.87563400E-1	1.31808632E+0
6.81581477E+2	2.87656600E-1	1.31818014E+0
6.77809761E+2	2.87524500E-1	1.31830758E+0
6.74831130E+2	2.87442900E-1	1.31849383E+0
6.72061657E+2	2.87505100E-1	1.31862570E+0
6.69148723E+2	2.87419600E-1	1.31888788E+0
6.66857191E+2	2.87602300E-1	1.31907436E+0
6.64910545E+2	2.87458400E-1	1.31942700E+0
6.64222420E+2	2.87477900E-1	1.31966888E+0
6.61666066E+2	2.87442900E-1	1.31998249E+0
6.59638301E+2	2.87404000E-1	1.32052206E+0
6.55240870E+2	2.87578900E-1	1.32174706E+0
6.53294822E+2	2.87454500E-1	1.32609749E+0
6.50896880E+2	2.87598400E-1	1.33230068E+0
6.46825771E+2	2.87582800E-1	1.36131561E+0
6.45227487E+2	2.87648900E-1	1.42327284E+0
6.43227775E+2	2.87505100E-1	1.47160293E+0
6.39029866E+2	2.87625600E-1	1.48493134E+0
6.36704508E+2	2.87645000E-1	1.48492584E+0
6.35149141E+2	2.87645000E-1	1.48499109E+0
6.32080949E+2	2.87439000E-1	1.48497230E+0
6.29697908E+2	2.87462300E-1	1.48499118E+0
6.27006063E+2	2.87586700E-1	1.48498746E+0
6.25224153E+2	2.87617800E-1	1.48500718E+0
6.23356193E+2	2.87606100E-1	1.48498170E+0
6.22002482E+2	2.87520600E-1	1.48498997E+0
6.18459369E+2	2.87547800E-1	1.48501403E+0
6.15613077E+2	2.87532300E-1	1.48501465E+0
6.14152669E+2	2.87586700E-1	1.48501899E+0
6.12680194E+2	2.87610000E-1	1.48502149E+0
6.11365184E+2	2.87470100E-1	1.48503813E+0
6.09395490E+2	2.87489500E-1	1.48498912E+0
6.06299853E+2	2.87532300E-1	1.48497566E+0
6.04194414E+2	2.87454500E-1	1.48501009E+0
6.01666429E+2	2.87481700E-1	1.48497266E+0
5.98684016E+2	2.87485600E-1	1.48498366E+0
5.96167018E+2	2.87610000E-1	1.48499158E+0
5.93788437E+2	2.87423400E-1	1.48496113E+0
5.92258641E+2	2.87427300E-1	1.48493376E+0
5.90765724E+2	2.87466200E-1	1.48491636E+0
5.86978519E+2	2.87501200E-1	1.48493331E+0
5.85409234E+2	2.87508900E-1	1.48491337E+0
5.84543472E+2	2.87563400E-1	1.48492969E+0
5.82459332E+2	2.87613900E-1	1.48492137E+0
5.79563834E+2	2.87497300E-1	1.48495697E+0
5.77710827E+2	2.87586700E-1	1.48494181E+0
5.76849884E+2	2.87520600E-1	1.48493349E+0
5.73622609E+2	2.87586700E-1	1.48493327E+0
5.71994652E+2	2.87446800E-1	1.48492777E+0
5.69384356E+2	2.87547800E-1	1.48493810E+0
5.67283406E+2	2.87641100E-1	1.48492075E+0
5.65296011E+2	2.87683800E-1	1.48493747E+0
5.64341409E+2	2.87435100E-1	1.48492862E+0
5.61157451E+2	2.87446800E-1	1.48497011E+0
5.60532817E+2	2.87532300E-1	1.48491882E+0
5.59130813E+2	2.87489500E-1	1.48492741E+0
5.57204723E+2	2.87505100E-1	1.48496327E+0
5.54846358E+2	2.87656600E-1	1.48495290E+0
5.52024789E+2	2.87454500E-1	1.48495665E+0
5.51286323E+2	2.87555600E-1	1.48500803E+0
5.50117611E+2	2.87419600E-1	1.48501125E+0
5.48417159E+2	2.87512900E-1	1.48500361E+0
5.45698750E+2	2.87474000E-1	1.48500218E+0
5.43189654E+2	2.87442900E-1	1.48494230E+0
5.40719307E+2	2.87625600E-1	1.48497074E+0
5.38808752E+2	2.87446800E-1	1.48500741E+0
5.37280984E+2	2.87501200E-1	1.48494713E+0
5.35147178E+2	2.87629400E-1	1.48499672E+0
5.33711628E+2	2.87637200E-1	1.48500294E+0
5.31297146E+2	2.87439000E-1	1.48497789E+0
5.29335518E+2	2.87582800E-1	1.48495482E+0
5.27645061E+2	2.87497300E-1	1.48499077E+0
5.25825732E+2	2.87625600E-1	1.48496792E+0
5.24602265E+2	2.87497300E-1	1.48496461E+0
5.23414280E+2	2.87493400E-1	1.48501859E+0
5.21655420E+2	2.87477900E-1	1.48500276E+0
5.19740658E+2	2.87575000E-1	1.48497874E+0
5.17500314E+2	2.87450600E-1	1.48499712E+0
5.16187870E+2	2.87656600E-1	1.48503902E+0
5.15385824E+2	2.87501200E-1	1.48499176E+0
5.13565370E+2	2.87454500E-1	1.48496350E+0
5.11580112E+2	2.87555600E-1	1.48501532E+0
5.10675536E+2	2.87454500E-1	1.48496484E+0
5.09405734E+2	2.87501200E-1	1.48495169E+0
5.06965779E+2	2.87645000E-1	1.48496636E+0
5.05408741E+2	2.87516700E-1	1.48493099E+0
5.03553705E+2	2.87594500E-1	1.48493805E+0
5.01479110E+2	2.87419600E-1	1.48492347E+0
4.99980547E+2	2.87489500E-1	1.48491225E+0
4.99285979E+2	2.87637200E-1	1.48495147E+0
4.97230477E+2	2.87637200E-1	1.48492244E+0
4.96586795E+2	2.87590600E-1	1.48494619E+0
4.95419118E+2	2.87474000E-1	1.48495160E+0
4.96020788E+2	2.87524500E-1	1.48492812E+0
4.95563968E+2	2.87508900E-1	1.48494167E+0
4.95013841E+2	2.87641100E-1	1.48490366E+0
4.94205311E+2	2.87489500E-1	1.48491126E+0
4.93635746E+2	2.87613900E-1	1.48489476E+0
4.93269440E+2	2.87466200E-1	1.48493452E+0
4.93480668E+2	2.87528400E-1	1.48490702E+0
4.93614358E+2	2.87543900E-1	1.48492455E+0
4.93128861E+2	2.87660600E-1	1.48495267E+0
4.93628407E+2	2.87439000E-1	1.48498156E+0
4.93955718E+2	2.87551700E-1	1.48497002E+0
4.93229680E+2	2.87497300E-1	1.48498840E+0
4.92431461E+2	2.87687800E-1	1.48494297E+0
4.92391836E+2	2.87516700E-1	1.48492625E+0
4.92414502E+2	2.87489500E-1	1.48494753E+0
4.92255098E+2	2.87450600E-1	1.48495491E+0
4.91997581E+2	2.87606100E-1	1.48493635E+0
4.92259601E+2	2.87617800E-1	1.48493728E+0
4.91555537E+2	2.87613900E-1	1.48494636E+0
4.91400053E+2	2.87606100E-1	1.48491466E+0
4.92178200E+2	2.87442900E-1	1.48492418E+0
4.92880249E+2	2.87543900E-1	1.48494162E+0
4.92033174E+2	2.87512900E-1	1.48493268E+0
4.92249851E+2	2.87485600E-1	1.48493228E+0
4.91826989E+2	2.87629400E-1	1.48492924E+0
4.91726080E+2	2.87621700E-1	1.48497597E+0
4.91681682E+2	2.87505100E-1	1.48494533E+0
4.91539326E+2	2.87540100E-1	1.48493832E+0
4.91169508E+2	2.87660600E-1	1.48487285E+0
4.91637894E+2	2.87547800E-1	1.48490281E+0
4.91927606E+2	2.87481700E-1	1.48493206E+0
4.92575520E+2	2.87400100E-1	1.48497892E+0
4.92102992E+2	2.87419600E-1	1.48490178E+0
4.91841782E+2	2.87645000E-1	1.48491091E+0
4.92231863E+2	2.87505100E-1	1.48493640E+0
4.92010594E+2	2.87466200E-1	1.48488180E+0
4.91959982E+2	2.87439000E-1	1.48485358E+0
4.91633796E+2	2.87493400E-1	1.48481450E+0
4.91466696E+2	2.87439000E-1	1.48484665E+0
4.92115645E+2	2.87516700E-1	1.48484244E+0
4.91998931E+2	2.87621700E-1	1.48485684E+0
4.92162385E+2	2.87470100E-1	1.48483198E+0
4.92524728E+2	2.87489500E-1	1.48484173E+0
4.92020905E+2	2.87540100E-1	1.48479531E+0
4.92444082E+2	2.87606100E-1	1.48485040E+0
4.92286798E+2	2.87672200E-1	1.48484186E+0
4.91369033E+2	2.87625600E-1	1.48488139E+0
4.91842192E+2	2.87454500E-1	1.48489400E+0
4.91431172E+2	2.87598400E-1	1.48488430E+0
4.91445851E+2	2.87660600E-1	1.48487169E+0
4.92123349E+2	2.87497300E-1	1.48487124E+0
4.92170134E+2	2.87512900E-1	1.48485331E+0
4.91776114E+2	2.87617800E-1	1.48484817E+0
4.92149940E+2	2.87481700E-1	1.48483498E+0
4.92428621E+2	2.87497300E-1	1.48483117E+0
4.91786966E+2	2.87602300E-1	1.48481601E+0
4.91594154E+2	2.87458400E-1	1.48485071E+0
4.91691956E+2	2.87450600E-1	1.48482133E+0
4.91469175E+2	2.87470100E-1	1.48485375E+0
4.91424388E+2	2.87493400E-1	1.48482084E+0
4.91422497E+2	2.87567300E-1	1.48478064E+0
4.91692532E+2	2.87629400E-1	1.48481217E+0
4.92078651E+2	2.87520600E-1	1.48484383E+0
4.91859993E+2	2.87427300E-1	1.48482720E+0
4.91382061E+2	2.87454500E-1	1.48484070E+0
4.91550062E+2	2.87641100E-1	1.48483104E+0
4.91626610E+2	2.87485600E-1	1.48482649E+0
4.91584329E+2	2.87477900E-1	1.48478869E+0
4.90920835E+2	2.87551700E-1	1.48481757E+0
4.90967124E+2	2.87462300E-1	1.48479929E+0
4.91077894E+2	2.87621700E-1	1.48482683E+0
4.90321732E+2	2.87435100E-1	1.48479772E+0
4.90229784E+2	2.87442900E-1	1.48477661E+0
4.90304891E+2	2.87466200E-1	1.48478502E+0
4.91137477E+2	2.87594500E-1	1.48479057E+0
4.91804573E+2	2.87625600E-1	1.48480885E+0
4.91497074E+2	2.87497300E-1	1.48475434E+0
4.91120276E+2	2.87606100E-1	1.48475627E+0
4.92250669E+2	2.87606100E-1	1.48478744E+0
4.92802087E+2	2.87489500E-1	1.48476311E+0
4.92948880E+2	2.87559500E-1	1.48474451E+0
4.92136927E+2	2.87423400E-1	1.48471052E+0
4.91860992E+2	2.87641100E-1	1.48474607E+0
4.91406431E+2	2.87590600E-1	1.48474755E+0
4.91733067E+2	2.87520600E-1	1.48474003E+0
4.92808840E+2	2.87629400E-1	1.48475560E+0
4.92256071E+2	2.87477900E-1	1.48472792E+0
4.91737254E+2	2.87396200E-1	1.48471620E+0
4.91713569E+2	2.87540100E-1	1.48474008E+0
