# Begin of measurement: 19.07.2019 15:32:18
# R-Sample[Ohm]	I-Coil[A]	U-Magnetometer[V]
# Kei2000	HP E3631A +6V : I	Kei2000
1.10060031E+3	3.82345100E-1	1.77747645E+0
1.10060688E+3	3.82193500E-1	1.77745454E+0
1.10060211E+3	3.82259500E-1	1.77744184E+0
1.10061963E+3	3.82251700E-1	1.77744528E+0
1.10061144E+3	3.82193500E-1	1.77744354E+0
1.10062165E+3	3.82228500E-1	1.77744582E+0
1.10061539E+3	3.82380000E-1	1.77746482E+0
1.10063507E+3	3.82255600E-1	1.77741724E+0
1.10060850E+3	3.82212900E-1	1.77741929E+0
1.10060157E+3	3.82181800E-1	1.77740570E+0
1.10056787E+3	3.82201200E-1	1.77740458E+0
1.10048609E+3	3.82391700E-1	1.77738898E+0
1.10039288E+3	3.82197300E-1	1.77739193E+0
1.10025275E+3	3.82364500E-1	1.77741004E+0
1.10009628E+3	3.82216800E-1	1.77737525E+0
1.09989982E+3	3.82399400E-1	1.77737695E+0
1.09963244E+3	3.82364500E-1	1.77737654E+0
1.09934802E+3	3.82150700E-1	1.77738380E+0
1.09898068E+3	3.82341100E-1	1.77739410E+0
1.09863486E+3	3.82189600E-1	1.77740085E+0
1.09813630E+3	3.82255600E-1	1.77736450E+0
1.09769984E+3	3.82197300E-1	1.77737612E+0
1.09712893E+3	3.82212900E-1	1.77735314E+0
1.09655697E+3	3.82220600E-1	1.77739191E+0
1.09593490E+3	3.82333400E-1	1.77737286E+0
1.09522944E+3	3.82372200E-1	1.77739258E+0
1.09451759E+3	3.82364500E-1	1.77740259E+0
1.09374652E+3	3.82329500E-1	1.77738605E+0
1.09295073E+3	3.82209000E-1	1.77736763E+0
1.09205105E+3	3.82294500E-1	1.77741865E+0
1.09108795E+3	3.82212900E-1	1.77742612E+0
1.09012758E+3	3.82209000E-1	1.77740747E+0
1.08910917E+3	3.82325600E-1	1.77738431E+0
1.08798617E+3	3.82356700E-1	1.77743539E+0
1.08689774E+3	3.82310100E-1	1.77743924E+0
1.08557647E+3	3.82220600E-1	1.77743182E+0
1.08449300E+3	3.82352800E-1	1.77739255E+0
1.08305740E+3	3.82220600E-1	1.77744282E+0
1.08172969E+3	3.82201200E-1	1.77741760E+0
1.08038865E+3	3.82232300E-1	1.77742108E+0
1.07903487E+3	3.82286700E-1	1.77742623E+0
1.07750584E+3	3.82333400E-1	1.77744850E+0
1.07597453E+3	3.82356700E-1	1.77741491E+0
1.07439151E+3	3.82294500E-1	1.77743325E+0
1.07280817E+3	3.82209000E-1	1.77744575E+0
1.07119201E+3	3.82228500E-1	1.77744575E+0
1.06957833E+3	3.82383900E-1	1.77744159E+0
1.06785190E+3	3.82399400E-1	1.77742325E+0
1.06624510E+3	3.82228500E-1	1.77745796E+0
1.06443122E+3	3.82352800E-1	1.77742826E+0
1.06268309E+3	3.82240100E-1	1.77745847E+0
1.06058850E+3	3.82263400E-1	1.77745073E+0
1.05860702E+3	3.82170200E-1	1.77747229E+0
1.05664072E+3	3.82313900E-1	1.77751070E+0
1.05454333E+3	3.82251700E-1	1.77750426E+0
1.05232385E+3	3.82333400E-1	1.77746160E+0
1.05025106E+3	3.82333400E-1	1.77743928E+0
1.04835833E+3	3.82348900E-1	1.77744680E+0
1.04607408E+3	3.82352800E-1	1.77744738E+0
1.04390723E+3	3.82197300E-1	1.77744751E+0
1.04188613E+3	3.82212900E-1	1.77742645E+0
1.04039443E+3	3.82360600E-1	1.77741138E+0
1.03826755E+3	3.82337300E-1	1.77741384E+0
1.03577402E+3	3.82391700E-1	1.77738504E+0
1.03328930E+3	3.82348900E-1	1.77739774E+0
1.03069558E+3	3.82259500E-1	1.77741576E+0
1.02799086E+3	3.82271200E-1	1.77739814E+0
1.02530996E+3	3.82224500E-1	1.77742184E+0
1.02297515E+3	3.82236200E-1	1.77745109E+0
1.02027119E+3	3.82333400E-1	1.77744814E+0
1.01793187E+3	3.82209000E-1	1.77744152E+0
1.01544811E+3	3.82205100E-1	1.77748036E+0
1.01312725E+3	3.82360600E-1	1.77747906E+0
1.01075187E+3	3.82282900E-1	1.77747294E+0
1.00736695E+3	3.82372200E-1	1.77747043E+0
1.00437144E+3	3.82197300E-1	1.77750106E+0
1.00208219E+3	3.82201200E-1	1.77751092E+0
9.99510711E+2	3.82306200E-1	1.77749652E+0
9.96586432E+2	3.82240100E-1	1.77749447E+0
9.93734855E+2	3.82267300E-1	1.77752107E+0
9.91218311E+2	3.82372200E-1	1.77751106E+0
9.88488238E+2	3.82356700E-1	1.77748181E+0
9.85659463E+2	3.82306200E-1	1.77750858E+0
9.82894763E+2	3.82360600E-1	1.77751716E+0
9.79983631E+2	3.82345100E-1	1.77750419E+0
9.76610786E+2	3.82298400E-1	1.77750804E+0
9.74858764E+2	3.82372200E-1	1.77748175E+0
9.71942049E+2	3.82313900E-1	1.77752673E+0
9.68331941E+2	3.82345100E-1	1.77747504E+0
9.65489927E+2	3.82364500E-1	1.77749758E+0
9.62717708E+2	3.82212900E-1	1.77747365E+0
9.58920777E+2	3.82325600E-1	1.77750723E+0
9.56037051E+2	3.82158500E-1	1.77750981E+0
9.52134078E+2	3.82275100E-1	1.77750288E+0
9.49223081E+2	3.82201200E-1	1.77750185E+0
9.46710811E+2	3.82181800E-1	1.77748392E+0
9.44006720E+2	3.82236200E-1	1.77746925E+0
9.40526203E+2	3.82376100E-1	1.77746388E+0
9.37029455E+2	3.82263400E-1	1.77749577E+0
9.34008917E+2	3.82395600E-1	1.77751164E+0
9.30753859E+2	3.82193500E-1	1.77752899E+0
9.28236367E+2	3.82236200E-1	1.77754294E+0
9.25610491E+2	3.82313900E-1	1.77751115E+0
9.22650639E+2	3.82380000E-1	1.77753257E+0
9.20183286E+2	3.82212900E-1	1.77751535E+0
9.16911986E+2	3.82337300E-1	1.77753619E+0
9.14123288E+2	3.82177900E-1	1.77752474E+0
9.10764486E+2	3.82372200E-1	1.77754111E+0
9.08101102E+2	3.82376100E-1	1.77757179E+0
9.05063848E+2	3.82395600E-1	1.77756593E+0
9.01562215E+2	3.82185700E-1	1.77758203E+0
8.96814343E+2	3.82380000E-1	1.77758350E+0
8.93739311E+2	3.82383900E-1	1.77757829E+0
8.90434949E+2	3.82244000E-1	1.77757753E+0
8.86801836E+2	3.82259500E-1	1.77753120E+0
8.83256888E+2	3.82197300E-1	1.77751448E+0
8.81649330E+2	3.82201200E-1	1.77755477E+0
8.78510984E+2	3.82244000E-1	1.77750786E+0
8.76479371E+2	3.82290600E-1	1.77753934E+0
8.72344868E+2	3.82162400E-1	1.77754717E+0
8.68273315E+2	3.82368400E-1	1.77756805E+0
8.66742486E+2	3.82255600E-1	1.77757471E+0
8.63036563E+2	3.82216800E-1	1.77757592E+0
8.60275507E+2	3.82333400E-1	1.77757005E+0
8.56580292E+2	3.82205100E-1	1.77758015E+0
8.54295058E+2	3.82333400E-1	1.77757424E+0
8.50996957E+2	3.82380000E-1	1.77759700E+0
8.48949202E+2	3.82255600E-1	1.77760197E+0
8.46327922E+2	3.82403400E-1	1.77766444E+0
8.41531959E+2	3.82212900E-1	1.77762994E+0
8.38651200E+2	3.82259500E-1	1.77764796E+0
8.35009757E+2	3.82232300E-1	1.77767743E+0
8.32396041E+2	3.82418900E-1	1.77769308E+0
8.29226721E+2	3.82352800E-1	1.77770212E+0
8.25323618E+2	3.82325600E-1	1.77773485E+0
8.20043413E+2	3.82170200E-1	1.77776892E+0
8.16109140E+2	3.82197300E-1	1.77779629E+0
8.14278332E+2	3.82438300E-1	1.77782795E+0
8.11385125E+2	3.82236200E-1	1.77780926E+0
8.07235852E+2	3.82209000E-1	1.77781203E+0
8.04707239E+2	3.82267300E-1	1.77783403E+0
8.01774227E+2	3.82240100E-1	1.77788631E+0
7.97353642E+2	3.82201200E-1	1.77792888E+0
7.95041299E+2	3.82418900E-1	1.77791980E+0
7.92470001E+2	3.82348900E-1	1.77801299E+0
7.90254426E+2	3.82298400E-1	1.77802833E+0
7.87713252E+2	3.82197300E-1	1.77800745E+0
7.85436394E+2	3.82352800E-1	1.77806089E+0
7.81874923E+2	3.82232300E-1	1.77811227E+0
7.78612395E+2	3.82383900E-1	1.77814769E+0
7.74651477E+2	3.82376100E-1	1.77822187E+0
7.71677581E+2	3.82306200E-1	1.77831824E+0
7.68819227E+2	3.82310100E-1	1.77837977E+0
7.65769323E+2	3.82391700E-1	1.77846174E+0
7.62468566E+2	3.82247900E-1	1.77850109E+0
7.58734108E+2	3.82228500E-1	1.77863407E+0
7.54699614E+2	3.82306200E-1	1.77878994E+0
7.52501961E+2	3.82282900E-1	1.77888904E+0
7.50661924E+2	3.82236200E-1	1.77903227E+0
7.48537712E+2	3.82368400E-1	1.77906281E+0
7.44713681E+2	3.82251700E-1	1.77921342E+0
7.41764460E+2	3.82337300E-1	1.77938315E+0
7.39924647E+2	3.82352800E-1	1.77961702E+0
7.37371450E+2	3.82407200E-1	1.77981177E+0
7.35897673E+2	3.82391700E-1	1.77998308E+0
7.32700256E+2	3.82247900E-1	1.78016598E+0
7.28401806E+2	3.82247900E-1	1.78061396E+0
7.27730389E+2	3.82166200E-1	1.78107791E+0
7.24669633E+2	3.82294500E-1	1.78143378E+0
7.21922904E+2	3.82356700E-1	1.78215776E+0
7.18469816E+2	3.82368400E-1	1.78337257E+0
7.15219311E+2	3.82185700E-1	1.78611834E+0
7.12268019E+2	3.82205100E-1	1.79212982E+0
7.09584645E+2	3.82166200E-1	1.79898065E+0
7.06069268E+2	3.82154600E-1	1.81722356E+0
7.05189054E+2	3.82356700E-1	1.85301133E+0
7.02796654E+2	3.82209000E-1	1.87901804E+0
7.01486689E+2	3.82247900E-1	1.90978242E+0
6.98245415E+2	3.82185700E-1	1.94458912E+0
6.94830556E+2	3.82158500E-1	1.98778576E+0
6.91126208E+2	3.82212900E-1	1.99668808E+0
6.87156543E+2	3.82345100E-1	1.99671978E+0
6.83621684E+2	3.82263400E-1	1.99675448E+0
6.80816689E+2	3.82325600E-1	1.99677747E+0
6.77625261E+2	3.82247900E-1	1.99678789E+0
6.74855524E+2	3.82216800E-1	1.99680090E+0
6.74164958E+2	3.82352800E-1	1.99678552E+0
6.71417087E+2	3.82228500E-1	1.99675859E+0
6.68923508E+2	3.82174000E-1	1.99679302E+0
6.65042381E+2	3.82306200E-1	1.99677755E+0
6.62709644E+2	3.82201200E-1	1.99677393E+0
6.60325934E+2	3.82240100E-1	1.99678019E+0
6.57147249E+2	3.82380000E-1	1.99677742E+0
6.55250433E+2	3.82244000E-1	1.99680541E+0
6.53707222E+2	3.82356700E-1	1.99678189E+0
6.51970254E+2	3.82267300E-1	1.99681851E+0
6.48992619E+2	3.82286700E-1	1.99680215E+0
6.46908888E+2	3.82430600E-1	1.99679320E+0
6.44185438E+2	3.82271200E-1	1.99680858E+0
6.42574345E+2	3.82224500E-1	1.99680724E+0
6.39783942E+2	3.82298400E-1	1.99678296E+0
6.37772075E+2	3.82209000E-1	1.99675859E+0
6.34920024E+2	3.82333400E-1	1.99679360E+0
6.33083137E+2	3.82255600E-1	1.99674119E+0
6.31804467E+2	3.82232300E-1	1.99676896E+0
6.29071231E+2	3.82329500E-1	1.99677017E+0
6.26076607E+2	3.82271200E-1	1.99678734E+0
6.23449652E+2	3.82205100E-1	1.99681963E+0
6.21852722E+2	3.82383900E-1	1.99682947E+0
6.20166455E+2	3.82368400E-1	1.99680367E+0
6.17752439E+2	3.82240100E-1	1.99676990E+0
6.15768755E+2	3.82294500E-1	1.99672246E+0
6.12677672E+2	3.82310100E-1	1.99673476E+0
6.09809411E+2	3.82352800E-1	1.99674540E+0
6.08142821E+2	3.82216800E-1	1.99672724E+0
6.05225479E+2	3.82220600E-1	1.99677071E+0
6.02747298E+2	3.82212900E-1	1.99675036E+0
6.00973901E+2	3.82313900E-1	1.99673976E+0
5.98692289E+2	3.82209000E-1	1.99673099E+0
5.95791742E+2	3.82391700E-1	1.99672345E+0
5.93428744E+2	3.82391700E-1	1.99674903E+0
5.91785029E+2	3.82216800E-1	1.99673651E+0
5.89695578E+2	3.82313900E-1	1.99673937E+0
5.88037049E+2	3.82294500E-1	1.99672287E+0
5.86264623E+2	3.82224500E-1	1.99669197E+0
5.84332254E+2	3.82251700E-1	1.99668723E+0
5.81765321E+2	3.82387800E-1	1.99668119E+0
5.79037007E+2	3.82189600E-1	1.99670802E+0
5.77935523E+2	3.82212900E-1	1.99669814E+0
5.74416421E+2	3.82341100E-1	1.99668660E+0
5.72613962E+2	3.82205100E-1	1.99668660E+0
5.71584511E+2	3.82356700E-1	1.99667207E+0
5.68392496E+2	3.82348900E-1	1.99670883E+0
5.66594288E+2	3.82228500E-1	1.99670847E+0
5.64411719E+2	3.82290600E-1	1.99664960E+0
5.62836672E+2	3.82174000E-1	1.99666294E+0
5.61123748E+2	3.82220600E-1	1.99661970E+0
5.60396741E+2	3.82360600E-1	1.99660422E+0
5.58407389E+2	3.82298400E-1	1.99662555E+0
5.55532643E+2	3.82341100E-1	1.99659609E+0
5.53841784E+2	3.82317900E-1	1.99662779E+0
5.52298122E+2	3.82247900E-1	1.99660472E+0
5.51528002E+2	3.82333400E-1	1.99658204E+0
5.49105594E+2	3.82181800E-1	1.99656791E+0
5.46625497E+2	3.82189600E-1	1.99661075E+0
5.44303160E+2	3.82177900E-1	1.99653959E+0
5.43260934E+2	3.82236200E-1	1.99655834E+0
5.40561440E+2	3.82220600E-1	1.99655512E+0
5.38486579E+2	3.82337300E-1	1.99655682E+0
5.36446075E+2	3.82333400E-1	1.99655838E+0
5.34273818E+2	3.82224500E-1	1.99654743E+0
5.32978488E+2	3.82337300E-1	1.99654251E+0
5.30952392E+2	3.82364500E-1	1.99656178E+0
5.29268693E+2	3.82212900E-1	1.99658830E+0
5.28327871E+2	3.82212900E-1	1.99657873E+0
5.25940918E+2	3.82146800E-1	1.99655342E+0
5.24103256E+2	3.82201200E-1	1.99656245E+0
5.22409560E+2	3.82201200E-1	1.99654872E+0
5.20173768E+2	3.82337300E-1	1.99652838E+0
5.18718227E+2	3.82205100E-1	1.99652775E+0
5.17390521E+2	3.82166200E-1	1.99654161E+0
5.16413766E+2	3.82317900E-1	1.99650300E+0
5.14400346E+2	3.82174000E-1	1.99652360E+0
5.12417808E+2	3.82364500E-1	1.99650455E+0
5.11771606E+2	3.82212900E-1	1.99651899E+0
5.09906803E+2	3.82228500E-1	1.99648353E+0
5.08590896E+2	3.82247900E-1	1.99650142E+0
5.06441514E+2	3.82142900E-1	1.99648398E+0
5.05535911E+2	3.82236200E-1	1.99648545E+0
5.03872174E+2	3.82337300E-1	1.99651573E+0
5.02644117E+2	3.82212900E-1	1.99645281E+0
5.00419763E+2	3.82329500E-1	1.99641927E+0
4.98626690E+2	3.82310100E-1	1.99646484E+0
4.97483331E+2	3.82150700E-1	1.99647020E+0
4.97186549E+2	3.82185700E-1	1.99645330E+0
4.96395290E+2	3.82193500E-1	1.99650821E+0
4.96007866E+2	3.82317900E-1	1.99647539E+0
4.95859498E+2	3.82294500E-1	1.99644994E+0
4.95196546E+2	3.82298400E-1	1.99646841E+0
4.94715418E+2	3.82181800E-1	1.99642785E+0
4.94857122E+2	3.82321700E-1	1.99646559E+0
4.94513106E+2	3.82185700E-1	1.99644373E+0
4.93893831E+2	3.82135200E-1	1.99644091E+0
4.92943058E+2	3.82177900E-1	1.99644065E+0
4.92590802E+2	3.82146800E-1	1.99643918E+0
4.93008214E+2	3.82317900E-1	1.99640501E+0
4.93464396E+2	3.82201200E-1	1.99638856E+0
4.92692079E+2	3.82228500E-1	1.99646185E+0
4.93250263E+2	3.82278900E-1	1.99639012E+0
4.92445382E+2	3.82154600E-1	1.99640318E+0
4.91777476E+2	3.82337300E-1	1.99641118E+0
4.92567904E+2	3.82209000E-1	1.99640707E+0
4.92078896E+2	3.82228500E-1	1.99645975E+0
4.91753026E+2	3.82313900E-1	1.99648385E+0
4.91445610E+2	3.82185700E-1	1.99645791E+0
4.91642339E+2	3.82317900E-1	1.99648269E+0
4.92010400E+2	3.82372200E-1	1.99647719E+0
4.92547318E+2	3.82356700E-1	1.99646815E+0
4.91542061E+2	3.82387800E-1	1.99648170E+0
4.91618969E+2	3.82096300E-1	1.99643985E+0
4.92429860E+2	3.82345100E-1	1.99643381E+0
4.93243072E+2	3.82216800E-1	1.99641758E+0
4.93471095E+2	3.82240100E-1	1.99642428E+0
4.93567186E+2	3.82236200E-1	1.99644673E+0
4.93096189E+2	3.82263400E-1	1.99645273E+0
4.92439406E+2	3.82177900E-1	1.99642876E+0
4.92037954E+2	3.82193500E-1	1.99641306E+0
4.91998522E+2	3.82348900E-1	1.99639325E+0
4.92594337E+2	3.82329500E-1	1.99640944E+0
4.91962499E+2	3.82321700E-1	1.99641203E+0
4.93108110E+2	3.82282900E-1	1.99643475E+0
4.93287277E+2	3.82193500E-1	1.99646417E+0
4.91951197E+2	3.82337300E-1	1.99642938E+0
4.91856638E+2	3.82368400E-1	1.99643676E+0
4.91477410E+2	3.82197300E-1	1.99647133E+0
4.91623076E+2	3.82259500E-1	1.99647916E+0
4.91203637E+2	3.82306200E-1	1.99647496E+0
4.91277484E+2	3.82341100E-1	1.99647429E+0
4.91087870E+2	3.82352800E-1	1.99646047E+0
4.92354819E+2	3.82341100E-1	1.99645568E+0
4.92389086E+2	3.82154600E-1	1.99642447E+0
4.92972292E+2	3.82240100E-1	1.99647590E+0
4.92439878E+2	3.82177900E-1	1.99641848E+0
4.92262556E+2	3.82193500E-1	1.99643319E+0
4.92042548E+2	3.82181800E-1	1.99640144E+0
4.91491162E+2	3.82193500E-1	1.99640109E+0
4.91238952E+2	3.82278900E-1	1.99640440E+0
4.90778448E+2	3.82313900E-1	1.99637846E+0
4.91117150E+2	3.82209000E-1	1.99636634E+0
4.91995202E+2	3.82321700E-1	1.99634899E+0
4.91606518E+2	3.82146800E-1	1.99635485E+0
4.91097721E+2	3.82294500E-1	1.99638137E+0
4.90675719E+2	3.82240100E-1	1.99638110E+0
4.90543651E+2	3.82368400E-1	1.99636737E+0
4.91045266E+2	3.82341100E-1	1.99638061E+0
4.91084441E+2	3.82162400E-1	1.99636871E+0
4.90520101E+2	3.82348900E-1	1.99636680E+0
4.91051345E+2	3.82267300E-1	1.99638356E+0
4.91707047E+2	3.82275100E-1	1.99637426E+0
