# Begin of measurement: 19.07.2019 15:38:13
# R-Sample[Ohm]	I-Coil[A]	U-Magnetometer[V]
# Kei2000	HP E3631A +6V : I	Kei2000
1.10048816E+3	4.80737600E-1	2.25009026E+0
1.10048825E+3	4.80636500E-1	2.25009079E+0
1.10048257E+3	4.80679300E-1	2.25006079E+0
1.10049896E+3	4.80749300E-1	2.25003771E+0
1.10050590E+3	4.80640500E-1	2.25007416E+0
1.10050730E+3	4.80675400E-1	2.25013721E+0
1.10049681E+3	4.80803700E-1	2.25010806E+0
1.10047443E+3	4.80667600E-1	2.25010676E+0
1.10044345E+3	4.80597700E-1	2.25009777E+0
1.10036911E+3	4.80621000E-1	2.25014875E+0
1.10027495E+3	4.80753200E-1	2.25012304E+0
1.10013969E+3	4.80761000E-1	2.25011311E+0
1.09999866E+3	4.80788100E-1	2.25009500E+0
1.09979040E+3	4.80784300E-1	2.25007975E+0
1.09950843E+3	4.80628800E-1	2.25009768E+0
1.09925925E+3	4.80733800E-1	2.25007331E+0
1.09890766E+3	4.80722100E-1	2.25004384E+0
1.09853258E+3	4.80780400E-1	2.25005614E+0
1.09808684E+3	4.80749300E-1	2.25005819E+0
1.09760891E+3	4.80757000E-1	2.25003373E+0
1.09708172E+3	4.80566600E-1	2.25000672E+0
1.09652278E+3	4.80558800E-1	2.25000748E+0
1.09586977E+3	4.80613200E-1	2.25003919E+0
1.09521304E+3	4.80764800E-1	2.25000632E+0
1.09445877E+3	4.80605500E-1	2.25004339E+0
1.09369855E+3	4.80702600E-1	2.25003409E+0
1.09285765E+3	4.80667600E-1	2.25004473E+0
1.09203493E+3	4.80628800E-1	2.25002917E+0
1.09113702E+3	4.80741500E-1	2.25001446E+0
1.08939679E+3	4.80597700E-1	2.25006414E+0
1.08899279E+3	4.80562700E-1	2.25003329E+0
1.08785767E+3	4.80706500E-1	2.25006034E+0
1.08676767E+3	4.80718200E-1	2.25001607E+0
1.08561454E+3	4.80761000E-1	2.25003454E+0
1.08434879E+3	4.80722100E-1	2.25001911E+0
1.08303347E+3	4.80659900E-1	2.25003624E+0
1.08177213E+3	4.80601600E-1	2.25002649E+0
1.08045280E+3	4.80613200E-1	2.24999800E+0
1.07898992E+3	4.80601600E-1	2.25004286E+0
1.07753032E+3	4.80745400E-1	2.25001321E+0
1.07602939E+3	4.80667600E-1	2.25000950E+0
1.07454683E+3	4.80726000E-1	2.25005596E+0
1.07292801E+3	4.80605500E-1	2.25001513E+0
1.07132532E+3	4.80632700E-1	2.25002712E+0
1.06970812E+3	4.80741500E-1	2.25007264E+0
1.06799993E+3	4.80562700E-1	2.25001911E+0
1.06609928E+3	4.80671500E-1	2.25003288E+0
1.06433498E+3	4.80691000E-1	2.25005024E+0
1.06253380E+3	4.80737600E-1	2.25010220E+0
1.06068876E+3	4.80648200E-1	2.25010935E+0
1.05863952E+3	4.80597700E-1	2.25011749E+0
1.05668736E+3	4.80745400E-1	2.25008328E+0
1.05454513E+3	4.80566600E-1	2.25007151E+0
1.05286819E+3	4.80768700E-1	2.25009128E+0
1.05057880E+3	4.80792000E-1	2.25008622E+0
1.04870134E+3	4.80780400E-1	2.25011171E+0
1.04664764E+3	4.80621000E-1	2.25010465E+0
1.04441892E+3	4.80609400E-1	2.25011356E+0
1.04187211E+3	4.80667600E-1	2.25013493E+0
1.03971259E+3	4.80710400E-1	2.25010309E+0
1.03733325E+3	4.80621000E-1	2.25009692E+0
1.03502829E+3	4.80737600E-1	2.25015470E+0
1.03319162E+3	4.80761000E-1	2.25014794E+0
1.03057935E+3	4.80624900E-1	2.25016749E+0
1.02783320E+3	4.80741500E-1	2.25016507E+0
1.02532440E+3	4.80776500E-1	2.25016869E+0
1.02327798E+3	4.80811500E-1	2.25019199E+0
1.02083189E+3	4.80733800E-1	2.25019660E+0
1.01820984E+3	4.80776500E-1	2.25023822E+0
1.01549994E+3	4.80574400E-1	2.25028553E+0
1.01300140E+3	4.80624900E-1	2.25022874E+0
1.01003975E+3	4.80632700E-1	2.25025539E+0
1.00700759E+3	4.80621000E-1	2.25021886E+0
1.00402103E+3	4.80788100E-1	2.25024250E+0
1.00121990E+3	4.80570500E-1	2.25025699E+0
9.99134546E+2	4.80659900E-1	2.25027801E+0
9.96951163E+2	4.80780400E-1	2.25029437E+0
9.94245857E+2	4.80648200E-1	2.25031968E+0
9.92172738E+2	4.80593800E-1	2.25032192E+0
9.88976301E+2	4.80613200E-1	2.25031807E+0
9.85453999E+2	4.80698800E-1	2.25027966E+0
9.83679790E+2	4.80722100E-1	2.25030730E+0
9.82709338E+2	4.80605500E-1	2.25024510E+0
9.77142747E+2	4.80737600E-1	2.25026096E+0
9.75221385E+2	4.80702600E-1	2.25030246E+0
9.71385955E+2	4.80710400E-1	2.25028931E+0
9.68393728E+2	4.80722100E-1	2.25030867E+0
9.64946353E+2	4.80718200E-1	2.25029293E+0
9.62028783E+2	4.80764800E-1	2.25034682E+0
9.59817033E+2	4.80605500E-1	2.25036335E+0
9.56628436E+2	4.80733800E-1	2.25036282E+0
9.53427113E+2	4.80702600E-1	2.25035021E+0
9.50450233E+2	4.80593800E-1	2.25036018E+0
9.48070166E+2	4.80574400E-1	2.25040391E+0
9.44346363E+2	4.80753200E-1	2.25046097E+0
9.41000167E+2	4.80593800E-1	2.25049223E+0
9.37920225E+2	4.80593800E-1	2.25050846E+0
9.35441997E+2	4.80691000E-1	2.25053610E+0
9.32396186E+2	4.80757000E-1	2.25055010E+0
9.28633163E+2	4.80593800E-1	2.25062138E+0
9.25698888E+2	4.80784300E-1	2.25062321E+0
9.21967250E+2	4.80597700E-1	2.25065854E+0
9.19080930E+2	4.80578300E-1	2.25074042E+0
9.16364953E+2	4.80586100E-1	2.25075642E+0
9.14558099E+2	4.80601600E-1	2.25078960E+0
9.11324925E+2	4.80788100E-1	2.25077248E+0
9.07336986E+2	4.80718200E-1	2.25087144E+0
9.03323425E+2	4.80570500E-1	2.25094540E+0
8.99665094E+2	4.80621000E-1	2.25101480E+0
8.96802819E+2	4.80566600E-1	2.25107093E+0
8.95448337E+2	4.80772600E-1	2.25107871E+0
8.91633354E+2	4.80710400E-1	2.25113729E+0
8.88187693E+2	4.80601600E-1	2.25123687E+0
8.84438946E+2	4.80710400E-1	2.25131097E+0
8.80918898E+2	4.80687100E-1	2.25133244E+0
8.77698784E+2	4.80706500E-1	2.25145022E+0
8.74399375E+2	4.80749300E-1	2.25150889E+0
8.71415435E+2	4.80539400E-1	2.25155012E+0
8.68502099E+2	4.80582100E-1	2.25162664E+0
8.65209670E+2	4.80644400E-1	2.25167140E+0
8.62077406E+2	4.80710400E-1	2.25181195E+0
8.58767326E+2	4.80714300E-1	2.25192006E+0
8.55845329E+2	4.80729900E-1	2.25204523E+0
8.53148064E+2	4.80582100E-1	2.25217366E+0
8.50727518E+2	4.80667600E-1	2.25238625E+0
8.46790596E+2	4.80632700E-1	2.25245163E+0
8.43159867E+2	4.80741500E-1	2.25270062E+0
8.40216766E+2	4.80718200E-1	2.25291754E+0
8.36949731E+2	4.80671500E-1	2.25310232E+0
8.33070130E+2	4.80698800E-1	2.25335980E+0
8.29735417E+2	4.80624900E-1	2.25367958E+0
8.27044881E+2	4.80733800E-1	2.25402725E+0
8.23839760E+2	4.80729900E-1	2.25442247E+0
8.21769535E+2	4.80582100E-1	2.25478679E+0
8.20201016E+2	4.80683200E-1	2.25518182E+0
8.17262688E+2	4.80745400E-1	2.25617143E+0
8.12738956E+2	4.80578300E-1	2.25661494E+0
8.09911713E+2	4.80531600E-1	2.25807691E+0
8.05584575E+2	4.80570500E-1	2.25996052E+0
8.01553093E+2	4.80558800E-1	2.26339503E+0
7.97619953E+2	4.80613200E-1	2.27008125E+0
7.95631964E+2	4.80698800E-1	2.27668891E+0
7.93189874E+2	4.80640500E-1	2.28294226E+0
7.93120666E+2	4.80589900E-1	2.29009320E+0
7.88883765E+2	4.80764800E-1	2.30111268E+0
7.84850527E+2	4.80659900E-1	2.33259374E+0
7.83021699E+2	4.80609400E-1	2.36736926E+0
7.79790462E+2	4.80722100E-1	2.39552543E+0
7.75655492E+2	4.80574400E-1	2.43829853E+0
7.74024248E+2	4.80722100E-1	2.48179390E+0
7.70906301E+2	4.80753200E-1	2.50560298E+0
7.65749378E+2	4.80605500E-1	2.52111732E+0
7.62540024E+2	4.80753200E-1	2.52174382E+0
7.58155112E+2	4.80624900E-1	2.52170908E+0
7.55784834E+2	4.80706500E-1	2.52169226E+0
7.54124359E+2	4.80772600E-1	2.52175549E+0
7.51441567E+2	4.80749300E-1	2.52168609E+0
7.47989464E+2	4.80737600E-1	2.52171176E+0
7.44963916E+2	4.80574400E-1	2.52172790E+0
7.43630580E+2	4.80593800E-1	2.52173170E+0
7.40443695E+2	4.80558800E-1	2.52171516E+0
7.38286880E+2	4.80601600E-1	2.52171060E+0
7.34064567E+2	4.80726000E-1	2.52176377E+0
7.30125752E+2	4.80624900E-1	2.52174703E+0
7.27436611E+2	4.80698800E-1	2.52176836E+0
7.24406650E+2	4.80562700E-1	2.52174832E+0
7.21939769E+2	4.80562700E-1	2.52175838E+0
7.18890611E+2	4.80628800E-1	2.52177623E+0
7.16468353E+2	4.80621000E-1	2.52174687E+0
7.13772278E+2	4.80555000E-1	2.52171964E+0
7.10472777E+2	4.80706500E-1	2.52174839E+0
7.08280119E+2	4.80558800E-1	2.52172326E+0
7.06160812E+2	4.80702600E-1	2.52171110E+0
7.04485166E+2	4.80718200E-1	2.52170090E+0
6.99497011E+2	4.80745400E-1	2.52176083E+0
6.99033354E+2	4.80621000E-1	2.52173498E+0
6.96837140E+2	4.80761000E-1	2.52172921E+0
6.93098298E+2	4.80570500E-1	2.52175242E+0
6.90540686E+2	4.80535500E-1	2.52171280E+0
6.87717586E+2	4.80706500E-1	2.52170989E+0
6.83405758E+2	4.80593800E-1	2.52170386E+0
6.82156355E+2	4.80753200E-1	2.52177281E+0
6.79391522E+2	4.80586100E-1	2.52177630E+0
6.75975399E+2	4.80726000E-1	2.52177746E+0
6.72954039E+2	4.80621000E-1	2.52175774E+0
6.71152271E+2	4.80710400E-1	2.52178708E+0
6.68751121E+2	4.80761000E-1	2.52179150E+0
6.65388941E+2	4.80617100E-1	2.52179557E+0
6.63401163E+2	4.80551100E-1	2.52174951E+0
6.60459099E+2	4.80632700E-1	2.52174533E+0
6.58350239E+2	4.80648200E-1	2.52173130E+0
6.55446899E+2	4.80722100E-1	2.52177969E+0
6.54195225E+2	4.80566600E-1	2.52176144E+0
6.51412156E+2	4.80718200E-1	2.52181975E+0
6.48047364E+2	4.80675400E-1	2.52178094E+0
6.45942738E+2	4.80512200E-1	2.52180182E+0
6.43718785E+2	4.80722100E-1	2.52178644E+0
6.40998936E+2	4.80761000E-1	2.52179180E+0
6.39222144E+2	4.80745400E-1	2.52178465E+0
6.37060208E+2	4.80527700E-1	2.52183934E+0
6.35608358E+2	4.80566600E-1	2.52185641E+0
6.32740094E+2	4.80593800E-1	2.52185475E+0
6.29768356E+2	4.80729900E-1	2.52185636E+0
6.27979017E+2	4.80679300E-1	2.52186991E+0
6.25839089E+2	4.80726000E-1	2.52186490E+0
6.22619292E+2	4.80683200E-1	2.52185332E+0
6.20370439E+2	4.80761000E-1	2.52190725E+0
6.17169414E+2	4.80632700E-1	2.52191919E+0
6.15436901E+2	4.80764800E-1	2.52190470E+0
6.14940508E+2	4.80589900E-1	2.52189415E+0
6.11850523E+2	4.80733800E-1	2.52189039E+0
6.08595446E+2	4.80593800E-1	2.52189406E+0
6.07194162E+2	4.80648200E-1	2.52185435E+0
6.04632451E+2	4.80601600E-1	2.52187411E+0
6.02529714E+2	4.80733800E-1	2.52185184E+0
6.01106861E+2	4.80555000E-1	2.52186231E+0
5.99883664E+2	4.80737600E-1	2.52188100E+0
5.98229910E+2	4.80605500E-1	2.52184885E+0
5.95737082E+2	4.80753200E-1	2.52185381E+0
5.93105847E+2	4.80644400E-1	2.52182586E+0
5.89593631E+2	4.80624900E-1	2.52187689E+0
5.86580330E+2	4.80574400E-1	2.52188999E+0
5.84784507E+2	4.80597700E-1	2.52186208E+0
5.83086774E+2	4.80663800E-1	2.52188444E+0
5.81108914E+2	4.80582100E-1	2.52189482E+0
5.79761080E+2	4.80792000E-1	2.52185265E+0
5.79149324E+2	4.80555000E-1	2.52187160E+0
5.77607867E+2	4.80508300E-1	2.52190361E+0
5.74077146E+2	4.80722100E-1	2.52189909E+0
5.70936957E+2	4.80698800E-1	2.52184288E+0
5.68802205E+2	4.80621000E-1	2.52184083E+0
5.67033761E+2	4.80757000E-1	2.52180017E+0
5.64754695E+2	4.80589900E-1	2.52181808E+0
5.63593324E+2	4.80539400E-1	2.52180529E+0
5.61430071E+2	4.80597700E-1	2.52181974E+0
5.59041046E+2	4.80749300E-1	2.52182747E+0
5.57831477E+2	4.80659900E-1	2.52186942E+0
5.56368569E+2	4.80589900E-1	2.52187302E+0
5.53610355E+2	4.80714300E-1	2.52185080E+0
5.51168421E+2	4.80628800E-1	2.52181959E+0
5.50391951E+2	4.80582100E-1	2.52178001E+0
5.48370853E+2	4.80593800E-1	2.52179553E+0
5.45661405E+2	4.80671500E-1	2.52180561E+0
5.44440100E+2	4.80586100E-1	2.52183700E+0
5.42666972E+2	4.80586100E-1	2.52185582E+0
5.41462193E+2	4.80659900E-1	2.52180628E+0
5.39243600E+2	4.80722100E-1	2.52186732E+0
5.37390547E+2	4.80761000E-1	2.52180364E+0
5.36455307E+2	4.80562700E-1	2.52180520E+0
5.33806710E+2	4.80772600E-1	2.52180954E+0
5.31621033E+2	4.80558800E-1	2.52186566E+0
5.30496540E+2	4.80741500E-1	2.52182600E+0
5.28738092E+2	4.80710400E-1	2.52186249E+0
5.27849277E+2	4.80772600E-1	2.52184292E+0
5.25892930E+2	4.80593800E-1	2.52187127E+0
5.24655421E+2	4.80582100E-1	2.52184243E+0
5.22659589E+2	4.80566600E-1	2.52184864E+0
5.20876600E+2	4.80776500E-1	2.52186648E+0
5.18501714E+2	4.80683200E-1	2.52185284E+0
5.16247008E+2	4.80698800E-1	2.52187932E+0
5.14526834E+2	4.80586100E-1	2.52189381E+0
5.12473387E+2	4.80761000E-1	2.52186116E+0
5.10429702E+2	4.80601600E-1	2.52185454E+0
5.09369374E+2	4.80586100E-1	2.52185893E+0
5.07980698E+2	4.80659900E-1	2.52189112E+0
5.05270576E+2	4.80589900E-1	2.52190208E+0
5.04116904E+2	4.80578300E-1	2.52191008E+0
5.03254346E+2	4.80761000E-1	2.52195149E+0
5.01138354E+2	4.80698800E-1	2.52189314E+0
4.99197360E+2	4.80574400E-1	2.52188893E+0
4.97696114E+2	4.80698800E-1	2.52191836E+0
4.96620251E+2	4.80772600E-1	2.52191643E+0
4.95822438E+2	4.80656000E-1	2.52184989E+0
4.94958569E+2	4.80601600E-1	2.52182347E+0
4.94869662E+2	4.80555000E-1	2.52186675E+0
4.94843590E+2	4.80632700E-1	2.52187762E+0
4.94453059E+2	4.80768700E-1	2.52184886E+0
4.94620114E+2	4.80621000E-1	2.52185691E+0
4.94711612E+2	4.80749300E-1	2.52190029E+0
4.93900290E+2	4.80582100E-1	2.52189081E+0
4.93730190E+2	4.80694900E-1	2.52187100E+0
4.93072915E+2	4.80566600E-1	2.52181260E+0
4.93300263E+2	4.80601600E-1	2.52183299E+0
4.93720603E+2	4.80589900E-1	2.52184488E+0
4.92695667E+2	4.80593800E-1	2.52189147E+0
4.92399650E+2	4.80566600E-1	2.52184746E+0
4.92170204E+2	4.80535500E-1	2.52181916E+0
4.92552059E+2	4.80652100E-1	2.52183552E+0
4.92747438E+2	4.80613200E-1	2.52184701E+0
4.91865376E+2	4.80761000E-1	2.52180015E+0
4.91771852E+2	4.80726000E-1	2.52179109E+0
4.92082998E+2	4.80675400E-1	2.52183590E+0
4.91853083E+2	4.80621000E-1	2.52186769E+0
4.91545349E+2	4.80706500E-1	2.52187458E+0
4.91178862E+2	4.80578300E-1	2.52183254E+0
4.91880000E+2	4.80613200E-1	2.52184421E+0
4.91649950E+2	4.80597700E-1	2.52179574E+0
4.91703669E+2	4.80582100E-1	2.52183344E+0
4.92352663E+2	4.80679300E-1	2.52187708E+0
4.92417594E+2	4.80722100E-1	2.52186183E+0
4.91741267E+2	4.80733800E-1	2.52184930E+0
4.91738385E+2	4.80737600E-1	2.52189771E+0
4.91397565E+2	4.80718200E-1	2.52183855E+0
4.91292199E+2	4.80589900E-1	2.52190558E+0
4.91100108E+2	4.80621000E-1	2.52190674E+0
4.91301276E+2	4.80753200E-1	2.52189186E+0
4.90869471E+2	4.80593800E-1	2.52193287E+0
4.90856278E+2	4.80597700E-1	2.52193359E+0
4.91361587E+2	4.80679300E-1	2.52192366E+0
4.91030358E+2	4.80578300E-1	2.52190305E+0
4.91088804E+2	4.80737600E-1	2.52191543E+0
4.91422873E+2	4.80792000E-1	2.52190466E+0
4.91483941E+2	4.80593800E-1	2.52189611E+0
4.91224127E+2	4.80578300E-1	2.52190166E+0
4.91170543E+2	4.80555000E-1	2.52190023E+0
4.92235104E+2	4.80609400E-1	2.52191391E+0
4.91685713E+2	4.80776500E-1	2.52190658E+0
4.91581968E+2	4.80582100E-1	2.52193077E+0
4.92005502E+2	4.80753200E-1	2.52189129E+0
4.91735692E+2	4.80698800E-1	2.52188762E+0
4.91756495E+2	4.80628800E-1	2.52186955E+0
4.91817689E+2	4.80667600E-1	2.52186513E+0
4.91840968E+2	4.80586100E-1	2.52188189E+0
4.92124422E+2	4.80722100E-1	2.52187353E+0
4.91624244E+2	4.80652100E-1	2.52190300E+0
4.91014930E+2	4.80679300E-1	2.52189200E+0
4.90616249E+2	4.80737600E-1	2.52190161E+0
4.91023260E+2	4.80589900E-1	2.52188972E+0
4.90448203E+2	4.80710400E-1	2.52185265E+0
4.91581342E+2	4.80555000E-1	2.52186911E+0
4.90995806E+2	4.80698800E-1	2.52187867E+0
4.91187161E+2	4.80605500E-1	2.52189831E+0
4.91197157E+2	4.80562700E-1	2.52186369E+0
4.92049185E+2	4.80562700E-1	2.52187349E+0
4.92496632E+2	4.80799800E-1	2.52190519E+0
4.91357819E+2	4.80772600E-1	2.52193287E+0
4.91400911E+2	4.80632700E-1	2.52188722E+0
4.91132833E+2	4.80539400E-1	2.52191682E+0
4.91564231E+2	4.80741500E-1	2.52190810E+0
4.91979173E+2	4.80624900E-1	2.52187295E+0
4.91547936E+2	4.80733800E-1	2.52190184E+0
4.91115979E+2	4.80757000E-1	2.52186146E+0
4.91255162E+2	4.80706500E-1	2.52184393E+0
4.91670684E+2	4.80582100E-1	2.52180149E+0
4.91220220E+2	4.80597700E-1	2.52178893E+0
4.91228606E+2	4.80593800E-1	2.52179286E+0
4.91305378E+2	4.80582100E-1	2.52177632E+0
4.90997429E+2	4.80749300E-1	2.52182398E+0
4.91573477E+2	4.80718200E-1	2.52183423E+0
4.91487653E+2	4.80609400E-1	2.52185006E+0
4.91244995E+2	4.80792000E-1	2.52184138E+0
4.90845188E+2	4.80574400E-1	2.52187952E+0
4.91509762E+2	4.80613200E-1	2.52184178E+0
4.91177619E+2	4.80617100E-1	2.52182363E+0
4.91505811E+2	4.80745400E-1	2.52179223E+0
4.91722623E+2	4.80613200E-1	2.52178150E+0
4.91456190E+2	4.80562700E-1	2.52179595E+0
4.91426697E+2	4.80714300E-1	2.52182153E+0
4.91631215E+2	4.80671500E-1	2.52184961E+0
4.92202941E+2	4.80605500E-1	2.52184773E+0
4.92084692E+2	4.80605500E-1	2.52184317E+0
4.91662579E+2	4.80706500E-1	2.52180972E+0
4.91533213E+2	4.80710400E-1	2.52179648E+0
4.91391283E+2	4.80586100E-1	2.52185225E+0
4.91372867E+2	4.80574400E-1	2.52183642E+0
4.92259250E+2	4.80574400E-1	2.52182832E+0
4.92104848E+2	4.80675400E-1	2.52185828E+0
4.92023707E+2	4.80570500E-1	2.52186911E+0
4.91973029E+2	4.80589900E-1	2.52187036E+0
4.91829897E+2	4.80659900E-1	2.52190756E+0
4.92648692E+2	4.80749300E-1	2.52188382E+0
4.92512977E+2	4.80628800E-1	2.52188708E+0
4.92576512E+2	4.80609400E-1	2.52187528E+0
4.92664993E+2	4.80761000E-1	2.52188659E+0
4.92119384E+2	4.80624900E-1	2.52186911E+0
4.92602673E+2	4.80761000E-1	2.52189500E+0
4.93094968E+2	4.80539400E-1	2.52188377E+0
4.93298362E+2	4.80527700E-1	2.52185949E+0
4.93071284E+2	4.80589900E-1	2.52189817E+0
4.92826554E+2	4.80679300E-1	2.52185435E+0
4.92919628E+2	4.80621000E-1	2.52187389E+0
4.92754239E+2	4.80733800E-1	2.52188686E+0
4.92054138E+2	4.80601600E-1	2.52187626E+0
4.92169005E+2	4.80589900E-1	2.52188879E+0
4.92303685E+2	4.80749300E-1	2.52187574E+0
4.92462410E+2	4.80624900E-1	2.52187659E+0
4.92126544E+2	4.80593800E-1	2.52185490E+0
4.91688012E+2	4.80582100E-1	2.52185378E+0
