# Begin of measurement: 19.07.2019 15:54:21
# R-Sample[Ohm]	I-Coil[A]	U-Magnetometer[V]
# Kei2000	HP E3631A +6V : I	Kei2000
4.91411478E+2	6.84752400E-1	3.60982398E+0
4.91967443E+2	6.84628000E-1	3.60980269E+0
4.91867435E+2	6.84748600E-1	3.60981973E+0
4.91809529E+2	6.84779600E-1	3.60982800E+0
4.91327140E+2	6.84678600E-1	3.60980900E+0
4.90964212E+2	6.84845700E-1	3.60979379E+0
4.91113841E+2	6.84690200E-1	3.60978145E+0
4.91583408E+2	6.84643600E-1	3.60980135E+0
4.91610706E+2	6.84779600E-1	3.60978100E+0
4.92291264E+2	6.84744600E-1	3.60980676E+0
4.91956524E+2	6.84806800E-1	3.60977577E+0
4.91339050E+2	6.84632000E-1	3.60980466E+0
4.91762452E+2	6.84616400E-1	3.60978136E+0
4.92255187E+2	6.84674700E-1	3.60978704E+0
4.91770060E+2	6.84717400E-1	3.60977381E+0
4.91001156E+2	6.84624100E-1	3.60978713E+0
4.90772412E+2	6.84791300E-1	3.60977626E+0
4.91440272E+2	6.84608600E-1	3.60981001E+0
4.90907317E+2	6.84647500E-1	3.60978893E+0
4.90973419E+2	6.84752400E-1	3.60976254E+0
4.91882676E+2	6.84628000E-1	3.60980038E+0
4.92104756E+2	6.84643600E-1	3.60979702E+0
4.92038519E+2	6.84647500E-1	3.60986799E+0
4.91666045E+2	6.84725200E-1	3.60989206E+0
4.92246910E+2	6.84647500E-1	3.60984779E+0
4.92296756E+2	6.84643600E-1	3.60982954E+0
4.92089782E+2	6.84643600E-1	3.60983589E+0
4.92025122E+2	6.84760200E-1	3.60982198E+0
4.92193843E+2	6.84748600E-1	3.60982976E+0
4.92263817E+2	6.84651400E-1	3.60984013E+0
4.92163179E+2	6.84628000E-1	3.60984304E+0
4.91452316E+2	6.84678600E-1	3.60980936E+0
4.91407926E+2	6.84635800E-1	3.60985609E+0
4.91784273E+2	6.84752400E-1	3.60985064E+0
4.91889414E+2	6.84612500E-1	3.60985882E+0
4.91442418E+2	6.84791300E-1	3.60986298E+0
4.92403142E+2	6.84663000E-1	3.60986844E+0
4.91848573E+2	6.84659100E-1	3.60986504E+0
4.92330354E+2	6.84655200E-1	3.60985739E+0
4.92775099E+2	6.84585300E-1	3.60982917E+0
4.92937291E+2	6.84826300E-1	3.60982815E+0
4.92438828E+2	6.84608600E-1	3.60986191E+0
4.91773534E+2	6.84651400E-1	3.60985444E+0
4.91682036E+2	6.84822400E-1	3.60984791E+0
4.91438207E+2	6.84659100E-1	3.60986101E+0
4.91269936E+2	6.84639700E-1	3.60982685E+0
4.91237741E+2	6.84682400E-1	3.60982036E+0
4.92519789E+2	6.84616400E-1	3.60981308E+0
4.91789519E+2	6.84635800E-1	3.60979587E+0
4.91774839E+2	6.84589100E-1	3.60983686E+0
4.91132307E+2	6.84752400E-1	3.60978905E+0
4.91326388E+2	6.84822400E-1	3.60982563E+0
4.92549629E+2	6.84639700E-1	3.60983444E+0
4.92773780E+2	6.84655200E-1	3.60980766E+0
4.92633382E+2	6.84651400E-1	3.60984352E+0
4.92357583E+2	6.84655200E-1	3.60980699E+0
4.92017833E+2	6.84764100E-1	3.60982331E+0
4.91846083E+2	6.84690200E-1	3.60986306E+0
4.91930286E+2	6.84686300E-1	3.60987594E+0
4.92085859E+2	6.84818500E-1	3.60984209E+0
4.91024271E+2	6.84620300E-1	3.60988010E+0
4.90878064E+2	6.84764100E-1	3.60986686E+0
4.91488756E+2	6.84814600E-1	3.60988471E+0
4.91419754E+2	6.84589100E-1	3.60986230E+0
4.91169441E+2	6.84616400E-1	3.60986749E+0
4.91489278E+2	6.84775700E-1	3.60986516E+0
4.92201040E+2	6.84721300E-1	3.60987988E+0
4.93128894E+2	6.84783500E-1	3.60983829E+0
4.94027884E+2	6.84814600E-1	3.60990027E+0
4.95494862E+2	6.84694100E-1	3.60987035E+0
4.96708331E+2	6.84834100E-1	3.60984151E+0
4.98265455E+2	6.84787400E-1	3.60987769E+0
4.99829154E+2	6.84760200E-1	3.60987183E+0
5.00929196E+2	6.84682400E-1	3.60990850E+0
5.01953005E+2	6.84624100E-1	3.60990429E+0
5.03341273E+2	6.84806800E-1	3.60991297E+0
5.04488865E+2	6.84600800E-1	3.60997454E+0
5.05880826E+2	6.84717400E-1	3.60994655E+0
5.07747790E+2	6.84760200E-1	3.60994901E+0
5.10139380E+2	6.84670800E-1	3.60994472E+0
5.11948753E+2	6.84795100E-1	3.60996032E+0
5.14320710E+2	6.84651400E-1	3.60996582E+0
5.15871441E+2	6.84666900E-1	3.60996828E+0
5.16363600E+2	6.84674700E-1	3.60994302E+0
5.17496243E+2	6.84674700E-1	3.60995535E+0
5.19040129E+2	6.84678600E-1	3.60996456E+0
5.21236971E+2	6.84666900E-1	3.60999256E+0
5.23356636E+2	6.84651400E-1	3.60999837E+0
5.24539891E+2	6.84666900E-1	3.60999976E+0
5.27082236E+2	6.84663000E-1	3.61001600E+0
5.28434167E+2	6.84709700E-1	3.61000044E+0
5.30423340E+2	6.84791300E-1	3.60999409E+0
5.32688265E+2	6.84678600E-1	3.61001935E+0
5.34991262E+2	6.84799100E-1	3.60998617E+0
5.36894880E+2	6.84655200E-1	3.61000339E+0
5.38182331E+2	6.84674700E-1	3.60998948E+0
5.39679838E+2	6.84694100E-1	3.60999950E+0
5.41687427E+2	6.84682400E-1	3.60999359E+0
5.43288545E+2	6.84810700E-1	3.60997969E+0
5.46111844E+2	6.84760200E-1	3.60996336E+0
5.47064553E+2	6.84818500E-1	3.60994516E+0
5.49514320E+2	6.84721300E-1	3.60994999E+0
5.51206936E+2	6.84810700E-1	3.60995594E+0
5.53078764E+2	6.84682400E-1	3.60991968E+0
5.55409971E+2	6.84783500E-1	3.61001336E+0
5.57348152E+2	6.84775700E-1	3.60995017E+0
5.59370326E+2	6.84678600E-1	3.60993555E+0
5.61589907E+2	6.84733000E-1	3.60998568E+0
5.64057953E+2	6.84845700E-1	3.61000942E+0
5.65922665E+2	6.84678600E-1	3.60999771E+0
5.66878571E+2	6.84612500E-1	3.60999489E+0
5.69588233E+2	6.84756300E-1	3.60996600E+0
5.71900785E+2	6.84600800E-1	3.61002821E+0
5.73103761E+2	6.84810700E-1	3.60998546E+0
5.75269668E+2	6.84698000E-1	3.61002888E+0
5.77411575E+2	6.84612500E-1	3.60997834E+0
5.79506337E+2	6.84635800E-1	3.60998908E+0
5.82168808E+2	6.84663000E-1	3.60997758E+0
5.83459045E+2	6.84604700E-1	3.60994995E+0
5.86140211E+2	6.84694100E-1	3.60994847E+0
5.88179589E+2	6.84822400E-1	3.60994915E+0
5.89624998E+2	6.84775700E-1	3.60996677E+0
5.92131859E+2	6.84830100E-1	3.60996530E+0
5.94097908E+2	6.84639700E-1	3.61003242E+0
5.97801048E+2	6.84659100E-1	3.60997987E+0
5.98823957E+2	6.84643600E-1	3.61003300E+0
6.01874581E+2	6.84647500E-1	3.61002768E+0
6.04408145E+2	6.84795100E-1	3.60997370E+0
6.06659786E+2	6.84705800E-1	3.60999499E+0
6.09188209E+2	6.84729100E-1	3.60998359E+0
6.11092979E+2	6.84787400E-1	3.60997066E+0
6.12307348E+2	6.84612500E-1	3.60998184E+0
6.14724333E+2	6.84799100E-1	3.60998426E+0
6.19035300E+2	6.84686300E-1	3.60996843E+0
6.21706471E+2	6.84791300E-1	3.60999400E+0
6.24053887E+2	6.84756300E-1	3.60999405E+0
6.25668806E+2	6.84643600E-1	3.61000527E+0
6.27734075E+2	6.84698000E-1	3.60995877E+0
6.29514585E+2	6.84670800E-1	3.60995166E+0
6.32186116E+2	6.84806800E-1	3.60996887E+0
6.33939338E+2	6.84748600E-1	3.60996543E+0
6.36715785E+2	6.84799100E-1	3.60993355E+0
6.39428173E+2	6.84639700E-1	3.60992872E+0
6.41769421E+2	6.84597000E-1	3.60993064E+0
6.44894836E+2	6.84616400E-1	3.60987519E+0
6.48586033E+2	6.84620300E-1	3.60990958E+0
6.50366543E+2	6.84659100E-1	3.60993981E+0
6.52503361E+2	6.84810700E-1	3.60988015E+0
6.54755363E+2	6.84628000E-1	3.60991843E+0
6.57920358E+2	6.84647500E-1	3.60984992E+0
6.61539014E+2	6.84810700E-1	3.60987466E+0
6.63094833E+2	6.84651400E-1	3.60988848E+0
6.64376474E+2	6.84764100E-1	3.60988396E+0
6.66498523E+2	6.84775700E-1	3.60987819E+0
6.68989964E+2	6.84628000E-1	3.60991026E+0
6.71368856E+2	6.84814600E-1	3.60989443E+0
6.73401120E+2	6.84733000E-1	3.60987301E+0
6.76685576E+2	6.84624100E-1	3.60988843E+0
6.79338511E+2	6.84791300E-1	3.60986607E+0
6.81490550E+2	6.84647500E-1	3.60986724E+0
6.85010385E+2	6.84666900E-1	3.60987341E+0
6.87017343E+2	6.84558100E-1	3.60989791E+0
6.90829396E+2	6.84663000E-1	3.60989179E+0
6.94870689E+2	6.84635800E-1	3.60987632E+0
6.97196538E+2	6.84733000E-1	3.60989009E+0
6.99690972E+2	6.84760200E-1	3.60990095E+0
7.01437081E+2	6.84624100E-1	3.60996424E+0
7.04017294E+2	6.84701900E-1	3.60994344E+0
7.06506370E+2	6.84791300E-1	3.60995136E+0
7.08990448E+2	6.84783500E-1	3.60992726E+0
7.11949755E+2	6.84589100E-1	3.60992797E+0
7.14592108E+2	6.84674700E-1	3.60992211E+0
7.18136756E+2	6.84651400E-1	3.60995713E+0
7.21074450E+2	6.84701900E-1	3.60995364E+0
7.24365794E+2	6.84818500E-1	3.60991420E+0
7.26097583E+2	6.84593000E-1	3.60993763E+0
7.28489982E+2	6.84748600E-1	3.60991813E+0
7.33180762E+2	6.84659100E-1	3.60992793E+0
7.35216132E+2	6.84659100E-1	3.60990579E+0
7.37050585E+2	6.84803000E-1	3.60998745E+0
7.40505382E+2	6.84616400E-1	3.60997976E+0
7.42665931E+2	6.84632000E-1	3.60994313E+0
7.45935797E+2	6.84670800E-1	3.60993392E+0
7.48756505E+2	6.84635800E-1	3.60995498E+0
7.52235965E+2	6.84806800E-1	3.60995919E+0
7.55294359E+2	6.84705800E-1	3.60990611E+0
7.57322614E+2	6.84744600E-1	3.60993535E+0
7.61194238E+2	6.84814600E-1	3.60992341E+0
7.64261207E+2	6.84771800E-1	3.60994555E+0
7.67667643E+2	6.84624100E-1	3.60989117E+0
7.72487249E+2	6.84822400E-1	3.60993651E+0
7.74915535E+2	6.84663000E-1	3.60991201E+0
7.79449526E+2	6.84647500E-1	3.60989376E+0
7.80404802E+2	6.84849500E-1	3.60988558E+0
7.84045566E+2	6.84655200E-1	3.60991129E+0
7.86519466E+2	6.84647500E-1	3.60993803E+0
7.88826673E+2	6.84818500E-1	3.60990937E+0
7.91282127E+2	6.84744600E-1	3.60994966E+0
7.95192386E+2	6.84841800E-1	3.60996522E+0
7.98502597E+2	6.84616400E-1	3.60991536E+0
8.00773510E+2	6.84674700E-1	3.60990852E+0
8.03374210E+2	6.84674700E-1	3.60986729E+0
8.06216623E+2	6.84612500E-1	3.60986335E+0
8.09318703E+2	6.84674700E-1	3.60988844E+0
8.11632844E+2	6.84643600E-1	3.60989372E+0
8.14118048E+2	6.84600800E-1	3.60993812E+0
8.17618415E+2	6.84795100E-1	3.60987127E+0
8.21920152E+2	6.84643600E-1	3.60990365E+0
8.25697173E+2	6.84721300E-1	3.60990065E+0
8.31057031E+2	6.84690200E-1	3.60994031E+0
8.33368065E+2	6.84639700E-1	3.60992140E+0
8.35698731E+2	6.84624100E-1	3.60989591E+0
8.37672413E+2	6.84822400E-1	3.60987412E+0
8.40713627E+2	6.84647500E-1	3.60990064E+0
8.43064015E+2	6.84612500E-1	3.60987886E+0
8.45742064E+2	6.84799100E-1	3.60992497E+0
8.49076998E+2	6.84678600E-1	3.60995336E+0
8.52780040E+2	6.84791300E-1	3.60992202E+0
8.55891904E+2	6.84694100E-1	3.60989832E+0
8.58965449E+2	6.84663000E-1	3.60992376E+0
8.61831639E+2	6.84814600E-1	3.60994518E+0
8.64203912E+2	6.84799100E-1	3.60992318E+0
8.67274756E+2	6.84795100E-1	3.60989765E+0
8.70346274E+2	6.84674700E-1	3.60989621E+0
8.73039375E+2	6.84589100E-1	3.60987412E+0
8.76207390E+2	6.84666900E-1	3.60989434E+0
8.79687406E+2	6.84651400E-1	3.60989487E+0
8.82956085E+2	6.84721300E-1	3.60993753E+0
8.85762894E+2	6.84810700E-1	3.60991357E+0
8.89024252E+2	6.84818500E-1	3.60992725E+0
8.92299119E+2	6.84585300E-1	3.60989554E+0
8.95127980E+2	6.84663000E-1	3.60986567E+0
8.97897539E+2	6.84787400E-1	3.60990565E+0
9.01337582E+2	6.84752400E-1	3.60991097E+0
9.04575308E+2	6.84690200E-1	3.60989286E+0
9.07811271E+2	6.84768000E-1	3.60981331E+0
9.10467628E+2	6.84678600E-1	3.60985512E+0
9.13855381E+2	6.84803000E-1	3.60986326E+0
9.17476922E+2	6.84659100E-1	3.60989255E+0
9.20128018E+2	6.84806800E-1	3.60990033E+0
9.22867351E+2	6.84841800E-1	3.60991513E+0
9.26339846E+2	6.84647500E-1	3.60990713E+0
9.29829858E+2	6.84628000E-1	3.60987645E+0
9.32831221E+2	6.84771800E-1	3.60989326E+0
9.36005224E+2	6.84791300E-1	3.60989259E+0
9.39091259E+2	6.84690200E-1	3.60988499E+0
9.41352715E+2	6.84670800E-1	3.60991482E+0
9.44101244E+2	6.84729100E-1	3.60986348E+0
9.46598066E+2	6.84826300E-1	3.60988034E+0
9.49897968E+2	6.84736900E-1	3.60980633E+0
9.52869118E+2	6.84663000E-1	3.60978330E+0
9.55685505E+2	6.84612500E-1	3.60975540E+0
9.58390635E+2	6.84764100E-1	3.60976291E+0
9.61529019E+2	6.84795100E-1	3.60978688E+0
9.64278808E+2	6.84764100E-1	3.60978733E+0
9.67156704E+2	6.84616400E-1	3.60976416E+0
9.69587783E+2	6.84806800E-1	3.60972588E+0
9.72201677E+2	6.84655200E-1	3.60973706E+0
9.75257452E+2	6.84814600E-1	3.60973504E+0
9.78135122E+2	6.84768000E-1	3.60974586E+0
9.81059757E+2	6.84608600E-1	3.60978003E+0
9.83514116E+2	6.84810700E-1	3.60973929E+0
9.86297407E+2	6.84647500E-1	3.60975805E+0
9.88912967E+2	6.84760200E-1	3.60975629E+0
9.91543167E+2	6.84682400E-1	3.60971654E+0
9.94331862E+2	6.84620300E-1	3.60966086E+0
9.96946703E+2	6.84612500E-1	3.60972571E+0
9.99563571E+2	6.84799100E-1	3.60972000E+0
1.00234686E+3	6.84686300E-1	3.60972753E+0
1.00471072E+3	6.84768000E-1	3.60973527E+0
1.00717833E+3	6.84686300E-1	3.60970736E+0
1.00954696E+3	6.84740700E-1	3.60970200E+0
1.01196453E+3	6.84791300E-1	3.60971845E+0
1.01466078E+3	6.84740700E-1	3.60972480E+0
1.01718921E+3	6.84659100E-1	3.60971327E+0
1.01960944E+3	6.84806800E-1	3.60973482E+0
1.02183979E+3	6.84814600E-1	3.60971604E+0
1.02434949E+3	6.84647500E-1	3.60975137E+0
1.02654223E+3	6.84752400E-1	3.60968827E+0
1.02884575E+3	6.84748600E-1	3.60969864E+0
1.03136391E+3	6.84822400E-1	3.60971796E+0
1.03351816E+3	6.84744600E-1	3.60972418E+0
1.03575553E+3	6.84752400E-1	3.60974139E+0
1.03798799E+3	6.84857400E-1	3.60974403E+0
1.04002543E+3	6.84674700E-1	3.60972744E+0
1.04219521E+3	6.84698000E-1	3.60974725E+0
1.04422919E+3	6.84678600E-1	3.60972623E+0
1.04633327E+3	6.84616400E-1	3.60973334E+0
1.04839071E+3	6.84635800E-1	3.60973165E+0
1.05027150E+3	6.84674700E-1	3.60973487E+0
1.05213932E+3	6.84701900E-1	3.60974887E+0
1.05412669E+3	6.84849500E-1	3.60971842E+0
1.05620168E+3	6.84655200E-1	3.60970353E+0
1.05795221E+3	6.84604700E-1	3.60970715E+0
1.05966101E+3	6.84795100E-1	3.60971994E+0
1.06154959E+3	6.84787400E-1	3.60973085E+0
1.06316584E+3	6.84787400E-1	3.60973975E+0
1.06492149E+3	6.84701900E-1	3.60975415E+0
1.06656444E+3	6.84663000E-1	3.60972637E+0
1.06818569E+3	6.84651400E-1	3.60967083E+0
1.06968189E+3	6.84779600E-1	3.60968594E+0
1.07117620E+3	6.84678600E-1	3.60972574E+0
1.07277552E+3	6.84725200E-1	3.60970736E+0
1.07422448E+3	6.84678600E-1	3.60974390E+0
1.07564022E+3	6.84604700E-1	3.60967320E+0
1.07692722E+3	6.84771800E-1	3.60972704E+0
1.07826977E+3	6.84666900E-1	3.60967950E+0
1.07951989E+3	6.84760200E-1	3.60973822E+0
1.08071517E+3	6.84717400E-1	3.60972279E+0
1.08190783E+3	6.84822400E-1	3.60972583E+0
1.08295722E+3	6.84791300E-1	3.60971792E+0
1.08403506E+3	6.84666900E-1	3.60970674E+0
1.08507522E+3	6.84597000E-1	3.60969905E+0
1.08611389E+3	6.84709700E-1	3.60972064E+0
1.08705264E+3	6.84651400E-1	3.60970651E+0
1.08787747E+3	6.84600800E-1	3.60969569E+0
1.08872395E+3	6.84826300E-1	3.60972458E+0
1.08945076E+3	6.84783500E-1	3.60972207E+0
1.09022459E+3	6.84659100E-1	3.60973424E+0
1.09091787E+3	6.84682400E-1	3.60976299E+0
1.09149271E+3	6.84663000E-1	3.60975248E+0
1.09207754E+3	6.84826300E-1	3.60974479E+0
1.09260261E+3	6.84814600E-1	3.60972923E+0
1.09291457E+3	6.84822400E-1	3.60974765E+0
1.09323396E+3	6.84678600E-1	3.60973589E+0
1.09371198E+3	6.84814600E-1	3.60978200E+0
1.09386359E+3	6.84748600E-1	3.60977033E+0
1.09409873E+3	6.84670800E-1	3.60974940E+0
1.09436768E+3	6.84779600E-1	3.60974636E+0
1.09460548E+3	6.84771800E-1	3.60975946E+0
1.09483922E+3	6.84810700E-1	3.60977945E+0
1.09502663E+3	6.84822400E-1	3.60976663E+0
1.09521040E+3	6.84845700E-1	3.60974805E+0
1.09543274E+3	6.84810700E-1	3.60979943E+0
1.09559790E+3	6.84783500E-1	3.60976746E+0
1.09576869E+3	6.84709700E-1	3.60972654E+0
1.09593624E+3	6.84612500E-1	3.60973879E+0
1.09612365E+3	6.84760200E-1	3.59234739E+0
1.09617800E+3	6.84787400E-1	3.52436438E+0
1.09629008E+3	6.84810700E-1	3.51054061E+0
1.09644353E+3	6.84779600E-1	3.50460731E+0
1.09658735E+3	6.84663000E-1	3.50119118E+0
1.09672379E+3	6.84682400E-1	3.49873706E+0
1.09684496E+3	6.84666900E-1	3.49624909E+0
1.09695978E+3	6.84705800E-1	3.49463607E+0
1.09712076E+3	6.84791300E-1	3.49331860E+0
1.09718321E+3	6.84834100E-1	3.49208018E+0
1.09728196E+3	6.84799100E-1	3.49126658E+0
1.09744850E+3	6.84686300E-1	3.49051018E+0
1.09749177E+3	6.84841800E-1	3.48977256E+0
1.09756958E+3	6.84705800E-1	3.48903221E+0
