# Begin of measurement: 19.07.2019 16:05:10
# R-Sample[Ohm]	I-Coil[A]	U-Magnetometer[V]
# Kei2000	HP E3631A +6V : I	Kei2000
1.10025597E+3	8.81599800E-1	4.64843762E+0
1.10025606E+3	8.81549300E-1	4.64838700E+0
1.10024978E+3	8.81665900E-1	4.64843914E+0
1.10025075E+3	8.81739700E-1	4.64842309E+0
1.10026299E+3	8.81599800E-1	4.64842890E+0
1.10026489E+3	8.81560900E-1	4.64839907E+0
1.10027015E+3	8.81728100E-1	4.64841857E+0
1.10027141E+3	8.81685400E-1	4.64839406E+0
1.10027502E+3	8.81712500E-1	4.64838709E+0
1.10026260E+3	8.81537600E-1	4.64837806E+0
1.10022627E+3	8.81545400E-1	4.64839761E+0
1.10018701E+3	8.81549300E-1	4.64837418E+0
1.10011784E+3	8.81560900E-1	4.64837217E+0
1.09999113E+3	8.81662000E-1	4.64842847E+0
1.09982529E+3	8.81662000E-1	4.64839757E+0
1.09968291E+3	8.81537600E-1	4.64840609E+0
1.09926113E+3	8.81487100E-1	4.64839415E+0
1.09916910E+3	8.81568700E-1	4.64842268E+0
1.09887421E+3	8.81564800E-1	4.64843655E+0
1.09845184E+3	8.81533700E-1	4.64841539E+0
1.09806523E+3	8.81599800E-1	4.64838999E+0
1.09758313E+3	8.81720300E-1	4.64836759E+0
1.09705043E+3	8.81533700E-1	4.64840918E+0
1.09649163E+3	8.81576400E-1	4.64840386E+0
1.09584367E+3	8.81747500E-1	4.64838847E+0
1.09517513E+3	8.81522100E-1	4.64838409E+0
1.09439457E+3	8.81541500E-1	4.64839366E+0
1.09359014E+3	8.81689200E-1	4.64834595E+0
1.09286464E+3	8.81498700E-1	4.64836084E+0
1.09189424E+3	8.81537600E-1	4.64837788E+0
1.09092897E+3	8.81502600E-1	4.64839882E+0
1.08990818E+3	8.81525900E-1	4.64839538E+0
1.08884897E+3	8.81704700E-1	4.64835965E+0
1.08780151E+3	8.81665900E-1	4.64841903E+0
1.08672539E+3	8.81592000E-1	4.64841447E+0
1.08541894E+3	8.81522100E-1	4.64845683E+0
1.08417279E+3	8.81646400E-1	4.64845157E+0
1.08283801E+3	8.81498700E-1	4.64846830E+0
1.08157074E+3	8.81654200E-1	4.64846275E+0
1.08013708E+3	8.81525900E-1	4.64845416E+0
1.07865540E+3	8.81642500E-1	4.64841794E+0
1.07708161E+3	8.81681300E-1	4.64842997E+0
1.07555128E+3	8.81549300E-1	4.64843346E+0
1.07395669E+3	8.81642500E-1	4.64840193E+0
1.07220680E+3	8.81595900E-1	4.64842188E+0
1.07039397E+3	8.81557100E-1	4.64843652E+0
1.06841632E+3	8.81588100E-1	4.64840562E+0
1.06672794E+3	8.81529800E-1	4.64843661E+0
1.06492874E+3	8.81514300E-1	4.64844886E+0
1.06330903E+3	8.81724200E-1	4.64844313E+0
1.06144671E+3	8.81533700E-1	4.64843432E+0
1.05932439E+3	8.81677500E-1	4.64848061E+0
1.05723195E+3	8.81576400E-1	4.64846478E+0
1.05509167E+3	8.81704700E-1	4.64845024E+0
1.05290753E+3	8.81553100E-1	4.64851030E+0
1.05109001E+3	8.81681300E-1	4.64850690E+0
1.04901002E+3	8.81623100E-1	4.64847157E+0
1.04679566E+3	8.81592000E-1	4.64847806E+0
1.04478420E+3	8.81697000E-1	4.64848821E+0
1.04284704E+3	8.81677500E-1	4.64848977E+0
1.04033194E+3	8.81728100E-1	4.64851321E+0
1.03765118E+3	8.81560900E-1	4.64849061E+0
1.03524757E+3	8.81665900E-1	4.64848480E+0
1.03262112E+3	8.81549300E-1	4.64848855E+0
1.02967925E+3	8.81518200E-1	4.64848480E+0
1.02716946E+3	8.81697000E-1	4.64845063E+0
1.02449911E+3	8.81533700E-1	4.64849768E+0
1.02210590E+3	8.81576400E-1	4.64851418E+0
1.01946778E+3	8.81549300E-1	4.64849732E+0
1.01732947E+3	8.81491000E-1	4.64851744E+0
1.01533053E+3	8.81572500E-1	4.64859485E+0
1.01320105E+3	8.81545400E-1	4.64854253E+0
1.01040812E+3	8.81568700E-1	4.64857387E+0
1.00744553E+3	8.81673600E-1	4.64855791E+0
1.00434889E+3	8.81560900E-1	4.64853864E+0
1.00154335E+3	8.81491000E-1	4.64853984E+0
9.99158598E+2	8.81786300E-1	4.64851002E+0
9.96236820E+2	8.81634800E-1	4.64854664E+0
9.93262790E+2	8.81611400E-1	4.64852777E+0
9.90334239E+2	8.81724200E-1	4.64857155E+0
9.87905998E+2	8.81494800E-1	4.64856077E+0
9.85104066E+2	8.81487100E-1	4.64857926E+0
9.82251268E+2	8.81650400E-1	4.64859379E+0
9.79272858E+2	8.81514300E-1	4.64855099E+0
9.76058918E+2	8.81712500E-1	4.64861481E+0
9.73133158E+2	8.81669800E-1	4.64861731E+0
9.70363377E+2	8.81580400E-1	4.64860665E+0
9.66635439E+2	8.81564800E-1	4.64861057E+0
9.63952448E+2	8.81522100E-1	4.64858866E+0
9.60932690E+2	8.81677500E-1	4.64861885E+0
9.57070387E+2	8.81693100E-1	4.64861411E+0
9.53581459E+2	8.81599800E-1	4.64862157E+0
9.50297769E+2	8.81731900E-1	4.64861333E+0
9.48289327E+2	8.81673600E-1	4.64860510E+0
9.45782486E+2	8.81506500E-1	4.64859629E+0
9.42558209E+2	8.81584300E-1	4.64860720E+0
9.38322306E+2	8.81716300E-1	4.64858520E+0
9.34202531E+2	8.81553100E-1	4.64861820E+0
9.30475718E+2	8.81588100E-1	4.64863573E+0
9.27998891E+2	8.81693100E-1	4.64860984E+0
9.25178333E+2	8.81681300E-1	4.64860752E+0
9.21616162E+2	8.81549300E-1	4.64865201E+0
9.19960606E+2	8.81599800E-1	4.64865823E+0
9.15490330E+2	8.81677500E-1	4.64863953E+0
9.12330513E+2	8.81724200E-1	4.64861100E+0
9.08646162E+2	8.81673600E-1	4.64863895E+0
9.05484724E+2	8.81553100E-1	4.64861476E+0
9.03094428E+2	8.81681300E-1	4.64864249E+0
8.99359374E+2	8.81646400E-1	4.64861355E+0
8.96395341E+2	8.81693100E-1	4.64860689E+0
8.92068435E+2	8.81525900E-1	4.64852510E+0
8.87673267E+2	8.81553100E-1	4.64855632E+0
8.84454238E+2	8.81545400E-1	4.64855198E+0
8.82085490E+2	8.81557100E-1	4.64858441E+0
8.79295041E+2	8.81677500E-1	4.64861402E+0
8.76742161E+2	8.81654200E-1	4.64861258E+0
8.74215937E+2	8.81533700E-1	4.64860811E+0
8.70610520E+2	8.81541500E-1	4.64856143E+0
8.66666040E+2	8.81498700E-1	4.64861111E+0
8.64059981E+2	8.81553100E-1	4.64861536E+0
8.59675259E+2	8.81545400E-1	4.64861692E+0
8.57093380E+2	8.81510400E-1	4.64857238E+0
8.54137046E+2	8.81658100E-1	4.64860038E+0
8.52261977E+2	8.81518200E-1	4.64857525E+0
8.49730531E+2	8.81592000E-1	4.64853250E+0
8.45115624E+2	8.81537600E-1	4.64853160E+0
8.41677937E+2	8.81673600E-1	4.64855280E+0
8.37591933E+2	8.81572500E-1	4.64859313E+0
8.34264520E+2	8.81720300E-1	4.64861491E+0
8.30873077E+2	8.81685400E-1	4.64857158E+0
8.26586606E+2	8.81557100E-1	4.64858830E+0
8.23640339E+2	8.81720300E-1	4.64859586E+0
8.19898171E+2	8.81491000E-1	4.64858839E+0
8.16072159E+2	8.81487100E-1	4.64857253E+0
8.11445859E+2	8.81533700E-1	4.64858537E+0
8.10173629E+2	8.81595900E-1	4.64855710E+0
8.06860085E+2	8.81529800E-1	4.64857683E+0
8.03403883E+2	8.81533700E-1	4.64861077E+0
8.00841433E+2	8.81564800E-1	4.64857589E+0
7.98235825E+2	8.81564800E-1	4.64859252E+0
7.95620041E+2	8.81665900E-1	4.64860942E+0
7.93069728E+2	8.81708600E-1	4.64858586E+0
7.90490056E+2	8.81557100E-1	4.64855388E+0
7.85758436E+2	8.81522100E-1	4.64855894E+0
7.81892139E+2	8.81669800E-1	4.64852594E+0
7.79627980E+2	8.81529800E-1	4.64854700E+0
7.76860269E+2	8.81627000E-1	4.64853412E+0
7.72745310E+2	8.81662000E-1	4.64853877E+0
7.69991423E+2	8.81700800E-1	4.64855429E+0
7.66198102E+2	8.81557100E-1	4.64854262E+0
7.62869833E+2	8.81518200E-1	4.64853103E+0
7.61063252E+2	8.81669800E-1	4.64853998E+0
7.56976211E+2	8.81549300E-1	4.64849589E+0
7.53133674E+2	8.81533700E-1	4.64851221E+0
7.50537656E+2	8.81576400E-1	4.64847031E+0
7.47471205E+2	8.81665900E-1	4.64847590E+0
7.45748310E+2	8.81654200E-1	4.64849852E+0
7.41503669E+2	8.81467600E-1	4.64842134E+0
7.40369495E+2	8.81541500E-1	4.64841524E+0
7.39060026E+2	8.81712500E-1	4.64840702E+0
7.34614648E+2	8.81518200E-1	4.64841529E+0
7.34359859E+2	8.81545400E-1	4.64841140E+0
7.29716465E+2	8.81529800E-1	4.64834786E+0
7.26171791E+2	8.81650400E-1	4.64833600E+0
7.21038652E+2	8.81576400E-1	4.64832290E+0
7.18449929E+2	8.81580400E-1	4.64829853E+0
7.16756099E+2	8.81673600E-1	4.64827966E+0
7.12998036E+2	8.81560900E-1	4.64824921E+0
7.09143311E+2	8.81541500E-1	4.64823576E+0
7.06665087E+2	8.81712500E-1	4.64821870E+0
7.05789467E+2	8.81627000E-1	4.64824964E+0
7.06092192E+2	8.81525900E-1	4.64820729E+0
7.01981107E+2	8.81525900E-1	4.64816325E+0
6.98289911E+2	8.81456000E-1	4.64813816E+0
6.93481787E+2	8.81502600E-1	4.64815108E+0
6.89607371E+2	8.81553100E-1	4.64814151E+0
6.86797559E+2	8.81483200E-1	4.64818042E+0
6.83440247E+2	8.81498700E-1	4.64816079E+0
6.82485332E+2	8.81646400E-1	4.64808459E+0
6.81012906E+2	8.81506500E-1	4.64808942E+0
6.76357534E+2	8.81693100E-1	4.64805950E+0
6.73836579E+2	8.81592000E-1	4.64805655E+0
6.71081476E+2	8.81553100E-1	4.64806008E+0
6.69200869E+2	8.81685400E-1	4.64805038E+0
6.67001821E+2	8.81580400E-1	4.64805811E+0
6.65417950E+2	8.81522100E-1	4.64800946E+0
6.62689594E+2	8.81549300E-1	4.64801778E+0
6.61053941E+2	8.81506500E-1	4.64800186E+0
6.57337664E+2	8.81615400E-1	4.64795075E+0
6.53118016E+2	8.81669800E-1	4.64795049E+0
6.52270538E+2	8.81518200E-1	4.64793882E+0
6.49997869E+2	8.81627000E-1	4.64793824E+0
6.46969332E+2	8.81514300E-1	4.64790121E+0
6.44216295E+2	8.81557100E-1	4.64794186E+0
6.40640597E+2	8.81673600E-1	4.64791172E+0
6.38221316E+2	8.81685400E-1	4.64792684E+0
6.35519167E+2	8.81662000E-1	4.64788436E+0
6.32525505E+2	8.81642500E-1	4.64788994E+0
6.31724365E+2	8.81541500E-1	4.64787112E+0
6.30512221E+2	8.81685400E-1	4.64786034E+0
6.28872425E+2	8.81700800E-1	4.64785055E+0
6.25443114E+2	8.81518200E-1	4.64780257E+0
6.22128851E+2	8.81673600E-1	4.64778522E+0
6.19550260E+2	8.81487100E-1	4.64779559E+0
6.17104114E+2	8.81611400E-1	4.64781379E+0
6.14718925E+2	8.81697000E-1	4.64781115E+0
6.12825530E+2	8.81522100E-1	4.64779130E+0
6.10774177E+2	8.81728100E-1	4.64778969E+0
6.08262544E+2	8.81522100E-1	4.64774613E+0
6.05485109E+2	8.81638600E-1	4.64773026E+0
6.02771690E+2	8.81700800E-1	4.64772735E+0
6.02311885E+2	8.81498700E-1	4.64772261E+0
6.01054741E+2	8.81630900E-1	4.64769202E+0
5.97307083E+2	8.81525900E-1	4.64764127E+0
5.94816029E+2	8.81506500E-1	4.64765084E+0
5.91904907E+2	8.81658100E-1	4.64763374E+0
5.89472705E+2	8.81630900E-1	4.64758124E+0
5.87693143E+2	8.81584300E-1	4.64753246E+0
5.85640710E+2	8.81529800E-1	4.64753326E+0
5.84103535E+2	8.81650400E-1	4.64755294E+0
5.82662630E+2	8.81463800E-1	4.64754277E+0
5.79377593E+2	8.81665900E-1	4.64754425E+0
5.76042304E+2	8.81677500E-1	4.64749953E+0
5.73463445E+2	8.81658100E-1	4.64750396E+0
5.71085457E+2	8.81487100E-1	4.64748459E+0
5.70498064E+2	8.81557100E-1	4.64747086E+0
5.69114705E+2	8.81650400E-1	4.64745065E+0
5.66481857E+2	8.81642500E-1	4.64743075E+0
5.65217239E+2	8.81623100E-1	4.64744220E+0
5.63576571E+2	8.81697000E-1	4.64740356E+0
5.60455481E+2	8.81658100E-1	4.64735922E+0
5.58861074E+2	8.81479300E-1	4.64736825E+0
5.56477412E+2	8.81638600E-1	4.64732233E+0
5.53826957E+2	8.81630900E-1	4.64729107E+0
5.51821398E+2	8.81654200E-1	4.64728848E+0
5.49696173E+2	8.81510400E-1	4.64726361E+0
5.48454833E+2	8.81533700E-1	4.64725995E+0
5.47059811E+2	8.81533700E-1	4.64723647E+0
5.45302132E+2	8.81615400E-1	4.64721465E+0
5.43600062E+2	8.81491000E-1	4.64717297E+0
5.40984233E+2	8.81665900E-1	4.64715268E+0
5.38536161E+2	8.81689200E-1	4.64717790E+0
5.35902902E+2	8.81498700E-1	4.64716883E+0
5.34244825E+2	8.81510400E-1	4.64718215E+0
5.32081036E+2	8.81685400E-1	4.64717464E+0
5.30979103E+2	8.81549300E-1	4.64714776E+0
5.28961295E+2	8.81494800E-1	4.64717285E+0
5.26831165E+2	8.81572500E-1	4.64718568E+0
5.25069579E+2	8.81510400E-1	4.64720652E+0
5.22728062E+2	8.81506500E-1	4.64717146E+0
5.21775308E+2	8.81650400E-1	4.64710573E+0
5.20750014E+2	8.81525900E-1	4.64712353E+0
5.18745850E+2	8.81619300E-1	4.64709093E+0
5.16108166E+2	8.81529800E-1	4.64712791E+0
5.15521611E+2	8.81638600E-1	4.64708811E+0
5.14108849E+2	8.81545400E-1	4.64710044E+0
5.12811629E+2	8.81502600E-1	4.64706814E+0
5.10999376E+2	8.81510400E-1	4.64702360E+0
5.09356879E+2	8.81650400E-1	4.64704533E+0
5.07317107E+2	8.81712500E-1	4.64706639E+0
5.05580060E+2	8.81506500E-1	4.64702704E+0
5.03984122E+2	8.81588100E-1	4.64704235E+0
5.01927770E+2	8.81502600E-1	4.64698828E+0
4.99940986E+2	8.81498700E-1	4.64702719E+0
4.98118331E+2	8.81518200E-1	4.64698891E+0
4.97569211E+2	8.81549300E-1	4.64700635E+0
4.96571203E+2	8.81630900E-1	4.64699110E+0
4.95409563E+2	8.81654200E-1	4.64701297E+0
4.94580592E+2	8.81549300E-1	4.64701816E+0
4.94166602E+2	8.81545400E-1	4.64699115E+0
4.93907735E+2	8.81720300E-1	4.64695671E+0
4.94843791E+2	8.81654200E-1	4.64693409E+0
4.94022284E+2	8.81584300E-1	4.64692635E+0
4.92716553E+2	8.81681300E-1	4.64690475E+0
4.92132536E+2	8.81471500E-1	4.64688382E+0
4.92325753E+2	8.81642500E-1	4.64683472E+0
4.92918866E+2	8.81658100E-1	4.64685766E+0
4.92038517E+2	8.81568700E-1	4.64686795E+0
4.91284428E+2	8.81642500E-1	4.64684353E+0
4.91104630E+2	8.81525900E-1	4.64687390E+0
4.90462392E+2	8.81522100E-1	4.64684684E+0
4.90734498E+2	8.81498700E-1	4.64683504E+0
4.91405464E+2	8.81646400E-1	4.64685851E+0
4.90958604E+2	8.81541500E-1	4.64681903E+0
4.90541891E+2	8.81545400E-1	4.64685762E+0
4.91010185E+2	8.81456000E-1	4.64683687E+0
4.91751531E+2	8.81638600E-1	4.64678316E+0
4.91806285E+2	8.81557100E-1	4.64679130E+0
4.91612303E+2	8.81510400E-1	4.64680293E+0
4.91754773E+2	8.81537600E-1	4.64676917E+0
4.91930598E+2	8.81638600E-1	4.64678947E+0
4.91787048E+2	8.81522100E-1	4.64679466E+0
4.92212565E+2	8.81560900E-1	4.64678692E+0
4.92545324E+2	8.81494800E-1	4.64682766E+0
4.92047672E+2	8.81623100E-1	4.64679260E+0
4.91681997E+2	8.81541500E-1	4.64682184E+0
4.91890027E+2	8.81475400E-1	4.64681304E+0
4.91983191E+2	8.81658100E-1	4.64681742E+0
4.92011694E+2	8.81510400E-1	4.64674457E+0
4.92958774E+2	8.81560900E-1	4.64678477E+0
4.92907037E+2	8.81693100E-1	4.64680449E+0
4.92598052E+2	8.81662000E-1	4.64678592E+0
4.93143795E+2	8.81506500E-1	4.64679463E+0
4.92333826E+2	8.81685400E-1	4.64679181E+0
4.92076310E+2	8.81522100E-1	4.64685848E+0
4.92542713E+2	8.81627000E-1	4.64679659E+0
4.92938151E+2	8.81553100E-1	4.64679275E+0
4.92262096E+2	8.81576400E-1	4.64681144E+0
4.92364347E+2	8.81549300E-1	4.64679847E+0
4.92436679E+2	8.81549300E-1	4.64674727E+0
4.92996155E+2	8.81537600E-1	4.64676663E+0
4.92707299E+2	8.81506500E-1	4.64679749E+0
4.92616297E+2	8.81681300E-1	4.64681475E+0
4.92307042E+2	8.81491000E-1	4.64679467E+0
4.92639595E+2	8.81506500E-1	4.64678926E+0
4.91927356E+2	8.81619300E-1	4.64678018E+0
4.92582788E+2	8.81459800E-1	4.64683353E+0
4.92078561E+2	8.81545400E-1	4.64675738E+0
4.91779618E+2	8.81580400E-1	4.64682088E+0
4.92264618E+2	8.81697000E-1	4.64683697E+0
4.91797359E+2	8.81681300E-1	4.64681609E+0
4.91643543E+2	8.81669800E-1	4.64684440E+0
4.91341538E+2	8.81654200E-1	4.64681882E+0
4.92027454E+2	8.81584300E-1	4.64682620E+0
4.91595362E+2	8.81662000E-1	4.64682423E+0
4.91049079E+2	8.81689200E-1	4.64679646E+0
4.91480270E+2	8.81697000E-1	4.64684109E+0
4.91601081E+2	8.81491000E-1	4.64679977E+0
4.91452850E+2	8.81541500E-1	4.64683129E+0
4.91484010E+2	8.81638600E-1	4.64682289E+0
4.91362434E+2	8.81514300E-1	4.64686564E+0
4.91488378E+2	8.81689200E-1	4.64687185E+0
4.91656513E+2	8.81510400E-1	4.64682638E+0
4.91472078E+2	8.81708600E-1	4.64684547E+0
4.91310246E+2	8.81557100E-1	4.64685558E+0
4.92128230E+2	8.81673600E-1	4.64685008E+0
4.92441089E+2	8.81681300E-1	4.64682172E+0
4.92447848E+2	8.81634800E-1	4.64681806E+0
4.92177634E+2	8.81592000E-1	4.64682387E+0
4.92348516E+2	8.81630900E-1	4.64675188E+0
4.92164215E+2	8.81553100E-1	4.64679682E+0
4.91379642E+2	8.81720300E-1	4.64680977E+0
4.91017525E+2	8.81541500E-1	4.64679519E+0
4.91381443E+2	8.81697000E-1	4.64680181E+0
4.91063812E+2	8.81665900E-1	4.64680141E+0
4.90971324E+2	8.81708600E-1	4.64680449E+0
4.91799485E+2	8.81463800E-1	4.64677024E+0
4.91229831E+2	8.81630900E-1	4.64681120E+0
4.91695919E+2	8.81502600E-1	4.64682971E+0
4.91591724E+2	8.81522100E-1	4.64680624E+0
4.91387611E+2	8.81697000E-1	4.64678504E+0
4.91294852E+2	8.81685400E-1	4.64682041E+0
4.91485210E+2	8.81557100E-1	4.64681706E+0
4.91526951E+2	8.81677500E-1	4.64680780E+0
4.91483589E+2	8.81615400E-1	4.64679734E+0
4.91737188E+2	8.81533700E-1	4.64684402E+0
4.92085437E+2	8.81514300E-1	4.64679030E+0
4.92059095E+2	8.81463800E-1	4.64676365E+0
4.91578823E+2	8.81491000E-1	4.64679433E+0
4.92085304E+2	8.81634800E-1	4.64678740E+0
4.91376217E+2	8.81595900E-1	4.64679473E+0
4.91111091E+2	8.81669800E-1	4.64682684E+0
4.90517843E+2	8.81491000E-1	4.64682201E+0
