# Begin of measurement: 19.07.2019 16:08:10
# R-Sample[Ohm]	I-Coil[A]	U-Magnetometer[V]
# Kei2000	HP E3631A +6V : I	Kei2000
4.92269958E+2	8.81638600E-1	4.64677823E+0
4.91828050E+2	8.81522100E-1	4.64674277E+0
4.91660679E+2	8.81518200E-1	4.64675355E+0
4.91827915E+2	8.81541500E-1	4.64676566E+0
4.91638255E+2	8.81650400E-1	4.64676307E+0
4.91811614E+2	8.81654200E-1	4.64674840E+0
4.92017664E+2	8.81592000E-1	4.64674514E+0
4.92105424E+2	8.81654200E-1	4.64677729E+0
4.92415174E+2	8.81522100E-1	4.64674429E+0
4.92184809E+2	8.81580400E-1	4.64679317E+0
4.92053281E+2	8.81677500E-1	4.64681704E+0
4.91717865E+2	8.81650400E-1	4.64677528E+0
4.91753573E+2	8.81514300E-1	4.64676839E+0
4.91486020E+2	8.81693100E-1	4.64681456E+0
4.91621062E+2	8.81611400E-1	4.64678822E+0
4.91444731E+2	8.81642500E-1	4.64679644E+0
4.91976291E+2	8.81502600E-1	4.64673585E+0
4.92784594E+2	8.81630900E-1	4.64670857E+0
4.92866455E+2	8.81557100E-1	4.64669683E+0
4.92049552E+2	8.81642500E-1	4.64671285E+0
4.91772437E+2	8.81689200E-1	4.64678073E+0
4.91588992E+2	8.81576400E-1	4.64674268E+0
4.92658999E+2	8.81650400E-1	4.64672985E+0
4.92510091E+2	8.81673600E-1	4.64673298E+0
4.93294169E+2	8.81685400E-1	4.64676046E+0
4.94068070E+2	8.81471500E-1	4.64674217E+0
4.93106501E+2	8.81580400E-1	4.64674503E+0
4.93349068E+2	8.81557100E-1	4.64674673E+0
4.92759602E+2	8.81463800E-1	4.64675657E+0
4.93016309E+2	8.81541500E-1	4.64674566E+0
4.92432832E+2	8.81677500E-1	4.64676489E+0
4.92279735E+2	8.81463800E-1	4.64673605E+0
4.91874459E+2	8.81708600E-1	4.64672751E+0
4.92439294E+2	8.81700800E-1	4.64672169E+0
4.92130760E+2	8.81502600E-1	4.64673734E+0
4.92415520E+2	8.81677500E-1	4.64676695E+0
4.92648316E+2	8.81494800E-1	4.64674928E+0
4.93032318E+2	8.81642500E-1	4.64678881E+0
4.92702393E+2	8.81572500E-1	4.64674539E+0
4.92177723E+2	8.81510400E-1	4.64674924E+0
4.92404666E+2	8.81553100E-1	4.64672353E+0
4.92567624E+2	8.81693100E-1	4.64677280E+0
4.92191052E+2	8.81595900E-1	4.64678416E+0
4.91850908E+2	8.81689200E-1	4.64678309E+0
4.92020466E+2	8.81681300E-1	4.64678986E+0
4.91577250E+2	8.81599800E-1	4.64677819E+0
4.91557572E+2	8.81708600E-1	4.64678856E+0
4.92328412E+2	8.81514300E-1	4.64679545E+0
4.92352502E+2	8.81545400E-1	4.64678288E+0
4.92082287E+2	8.81518200E-1	4.64683250E+0
4.91290060E+2	8.81487100E-1	4.64680754E+0
4.91512893E+2	8.81693100E-1	4.64682837E+0
4.91669861E+2	8.81510400E-1	4.64683030E+0
4.91447331E+2	8.81599800E-1	4.64681702E+0
4.92475417E+2	8.81522100E-1	4.64679479E+0
4.93138054E+2	8.81607500E-1	4.64677522E+0
4.93565282E+2	8.81510400E-1	4.64681144E+0
4.92447230E+2	8.81677500E-1	4.64681368E+0
4.92547688E+2	8.81572500E-1	4.64687378E+0
4.92610232E+2	8.81518200E-1	4.64679749E+0
4.92120955E+2	8.81564800E-1	4.64680992E+0
4.91511992E+2	8.81669800E-1	4.64678872E+0
4.91213005E+2	8.81712500E-1	4.64682995E+0
4.91755777E+2	8.81502600E-1	4.64684793E+0
4.91904415E+2	8.81638600E-1	4.64682003E+0
4.92409272E+2	8.81533700E-1	4.64684887E+0
4.92628740E+2	8.81677500E-1	4.64687771E+0
4.92994595E+2	8.81669800E-1	4.64688630E+0
4.93004846E+2	8.81557100E-1	4.64689980E+0
4.93583588E+2	8.81553100E-1	4.64688411E+0
4.94927772E+2	8.81553100E-1	4.64690718E+0
4.95809651E+2	8.81580400E-1	4.64687391E+0
4.96703193E+2	8.81665900E-1	4.64685924E+0
4.98538096E+2	8.81576400E-1	4.64692230E+0
5.00108184E+2	8.81689200E-1	4.64690190E+0
5.01994210E+2	8.81572500E-1	4.64689222E+0
5.03118657E+2	8.81689200E-1	4.64691341E+0
5.04824508E+2	8.81654200E-1	4.64689678E+0
5.06148070E+2	8.81716300E-1	4.64689074E+0
5.08280069E+2	8.81662000E-1	4.64690331E+0
5.09738851E+2	8.81580400E-1	4.64691715E+0
5.10450020E+2	8.81673600E-1	4.64692592E+0
5.12720120E+2	8.81685400E-1	4.64691438E+0
5.14256034E+2	8.81483200E-1	4.64693298E+0
5.15614402E+2	8.81654200E-1	4.64693826E+0
5.18255446E+2	8.81553100E-1	4.64690769E+0
5.19890783E+2	8.81630900E-1	4.64692844E+0
5.21185706E+2	8.81708600E-1	4.64690952E+0
5.22784570E+2	8.81518200E-1	4.64693948E+0
5.25326551E+2	8.81533700E-1	4.64691829E+0
5.26387507E+2	8.81541500E-1	4.64693452E+0
5.28064990E+2	8.81537600E-1	4.64696153E+0
5.30517050E+2	8.81595900E-1	4.64692021E+0
5.31616386E+2	8.81560900E-1	4.64693367E+0
5.33049547E+2	8.81603600E-1	4.64693027E+0
5.35764257E+2	8.81611400E-1	4.64690948E+0
5.39337972E+2	8.81525900E-1	4.64687321E+0
5.41005055E+2	8.81646400E-1	4.64687773E+0
5.41994912E+2	8.81595900E-1	4.64691390E+0
5.43219006E+2	8.81576400E-1	4.64691484E+0
5.44876992E+2	8.81529800E-1	4.64694454E+0
5.46711940E+2	8.81529800E-1	4.64693376E+0
5.48861816E+2	8.81654200E-1	4.64692119E+0
5.50734903E+2	8.81693100E-1	4.64694713E+0
5.52941739E+2	8.81553100E-1	4.64693094E+0
5.55850098E+2	8.81669800E-1	4.64696034E+0
5.58051886E+2	8.81716300E-1	4.64697456E+0
5.59474375E+2	8.81545400E-1	4.64695255E+0
5.61705436E+2	8.81673600E-1	4.64693319E+0
5.63416871E+2	8.81553100E-1	4.64692908E+0
5.64549378E+2	8.81545400E-1	4.64691848E+0
5.67422228E+2	8.81720300E-1	4.64696342E+0
5.68977145E+2	8.81557100E-1	4.64696356E+0
5.71069429E+2	8.81584300E-1	4.64694598E+0
5.72802703E+2	8.81560900E-1	4.64693655E+0
5.74489688E+2	8.81642500E-1	4.64691423E+0
5.76851557E+2	8.81681300E-1	4.64691432E+0
5.79837052E+2	8.81572500E-1	4.64691723E+0
5.82521088E+2	8.81700800E-1	4.64687528E+0
5.84752285E+2	8.81669800E-1	4.64692036E+0
5.86649867E+2	8.81553100E-1	4.64688552E+0
5.89541178E+2	8.81557100E-1	4.64684882E+0
5.91040665E+2	8.81588100E-1	4.64688746E+0
5.93011456E+2	8.81588100E-1	4.64691993E+0
5.95241026E+2	8.81533700E-1	4.64691715E+0
5.98194431E+2	8.81716300E-1	4.64690758E+0
5.99259755E+2	8.81708600E-1	4.64688610E+0
6.01918000E+2	8.81560900E-1	4.64689710E+0
6.04688771E+2	8.81708600E-1	4.64690931E+0
6.07322205E+2	8.81522100E-1	4.64690837E+0
6.09378872E+2	8.81549300E-1	4.64688047E+0
6.11193917E+2	8.81685400E-1	4.64686680E+0
6.12798005E+2	8.81627000E-1	4.64686586E+0
6.14418348E+2	8.81576400E-1	4.64686148E+0
6.17501524E+2	8.81541500E-1	4.64681904E+0
6.19915130E+2	8.81580400E-1	4.64682096E+0
6.21668262E+2	8.81669800E-1	4.64681985E+0
6.23945072E+2	8.81689200E-1	4.64683033E+0
6.26303203E+2	8.81506500E-1	4.64687902E+0
6.28453619E+2	8.81564800E-1	4.64685018E+0
6.31073410E+2	8.81642500E-1	4.64684911E+0
6.33172244E+2	8.81685400E-1	4.64685183E+0
6.35772949E+2	8.81529800E-1	4.64688850E+0
6.37944078E+2	8.81502600E-1	4.64685152E+0
6.41520136E+2	8.81541500E-1	4.64688895E+0
6.44160911E+2	8.81720300E-1	4.64687697E+0
6.46702083E+2	8.81533700E-1	4.64689950E+0
6.50296872E+2	8.81545400E-1	4.64689253E+0
6.51186423E+2	8.81642500E-1	4.64691042E+0
6.53981645E+2	8.81685400E-1	4.64688873E+0
6.56811718E+2	8.81693100E-1	4.64686512E+0
6.59314571E+2	8.81522100E-1	4.64687214E+0
6.62571333E+2	8.81681300E-1	4.64680148E+0
6.64990794E+2	8.81646400E-1	4.64681955E+0
6.67556956E+2	8.81650400E-1	4.64684271E+0
6.69730292E+2	8.81557100E-1	4.64688721E+0
6.72699008E+2	8.81665900E-1	4.64690845E+0
6.76995653E+2	8.81677500E-1	4.64689642E+0
6.79563212E+2	8.81658100E-1	4.64689991E+0
6.80371019E+2	8.81669800E-1	4.64692289E+0
6.83706671E+2	8.81665900E-1	4.64694583E+0
6.85222999E+2	8.81557100E-1	4.64692893E+0
6.87518181E+2	8.81599800E-1	4.64692809E+0
6.90637787E+2	8.81689200E-1	4.64688481E+0
6.93496723E+2	8.81553100E-1	4.64692876E+0
6.96438242E+2	8.81549300E-1	4.64693896E+0
6.99504851E+2	8.81681300E-1	4.64694956E+0
7.01323140E+2	8.81658100E-1	4.64696982E+0
7.04386236E+2	8.81564800E-1	4.64697035E+0
7.07737333E+2	8.81595900E-1	4.64695537E+0
7.11314833E+2	8.81689200E-1	4.64694450E+0
7.13686699E+2	8.81720300E-1	4.64694974E+0
7.16921325E+2	8.81697000E-1	4.64693914E+0
7.19521307E+2	8.81665900E-1	4.64696418E+0
7.22123492E+2	8.81677500E-1	4.64694240E+0
7.24488243E+2	8.81720300E-1	4.64692733E+0
7.27961230E+2	8.81700800E-1	4.64696351E+0
7.30135241E+2	8.81704700E-1	4.64698615E+0
7.32278069E+2	8.81693100E-1	4.64698991E+0
7.34259219E+2	8.81665900E-1	4.64697815E+0
7.37885531E+2	8.81518200E-1	4.64699241E+0
7.40454127E+2	8.81638600E-1	4.64698387E+0
7.43386371E+2	8.81658100E-1	4.64698833E+0
7.46641559E+2	8.81731900E-1	4.64701243E+0
7.49758780E+2	8.81483200E-1	4.64708429E+0
7.53052612E+2	8.81728100E-1	4.64706587E+0
7.55756203E+2	8.81716300E-1	4.64703989E+0
7.58303140E+2	8.81669800E-1	4.64703068E+0
7.61480023E+2	8.81537600E-1	4.64706034E+0
7.63818614E+2	8.81541500E-1	4.64706646E+0
7.67254996E+2	8.81654200E-1	4.64703914E+0
7.69730951E+2	8.81576400E-1	4.64701352E+0
7.72261453E+2	8.81557100E-1	4.64697341E+0
7.74689020E+2	8.81529800E-1	4.64696831E+0
7.77474517E+2	8.81681300E-1	4.64698584E+0
7.81098081E+2	8.81685400E-1	4.64696505E+0
7.84202829E+2	8.81588100E-1	4.64698535E+0
7.87931900E+2	8.81689200E-1	4.64702385E+0
7.91669070E+2	8.81533700E-1	4.64701195E+0
7.95147328E+2	8.81580400E-1	4.64699970E+0
7.98772738E+2	8.81522100E-1	4.64701996E+0
8.00909241E+2	8.81704700E-1	4.64699080E+0
8.04340219E+2	8.81560900E-1	4.64698614E+0
8.06983709E+2	8.81599800E-1	4.64699560E+0
8.09729662E+2	8.81720300E-1	4.64696855E+0
8.12308523E+2	8.81697000E-1	4.64697919E+0
8.16389889E+2	8.81514300E-1	4.64699994E+0
8.19094200E+2	8.81525900E-1	4.64700689E+0
8.21616371E+2	8.81549300E-1	4.64697084E+0
8.24620840E+2	8.81491000E-1	4.64699580E+0
8.28173799E+2	8.81716300E-1	4.64698904E+0
8.31897911E+2	8.81650400E-1	4.64694392E+0
8.34466506E+2	8.81529800E-1	4.64698582E+0
8.37258171E+2	8.81693100E-1	4.64695799E+0
8.40580045E+2	8.81654200E-1	4.64692937E+0
8.43342608E+2	8.81564800E-1	4.64695996E+0
8.45912410E+2	8.81685400E-1	4.64696998E+0
8.49120543E+2	8.81487100E-1	4.64696573E+0
8.52268654E+2	8.81568700E-1	4.64695196E+0
8.56238080E+2	8.81654200E-1	4.64697767E+0
8.59151728E+2	8.81572500E-1	4.64696765E+0
8.62678224E+2	8.81595900E-1	4.64694355E+0
8.65217634E+2	8.81510400E-1	4.64696689E+0
8.68030418E+2	8.81592000E-1	4.64696788E+0
8.71285605E+2	8.81689200E-1	4.64689561E+0
8.74386030E+2	8.81533700E-1	4.64688332E+0
8.77036306E+2	8.81588100E-1	4.64689771E+0
8.80169996E+2	8.81673600E-1	4.64692589E+0
8.83183417E+2	8.81623100E-1	4.64693680E+0
8.85955946E+2	8.81603600E-1	4.64689552E+0
8.89614633E+2	8.81479300E-1	4.64688694E+0
8.92525219E+2	8.81673600E-1	4.64696358E+0
8.95201568E+2	8.81568700E-1	4.64695974E+0
8.97830488E+2	8.81491000E-1	4.64696448E+0
9.00715992E+2	8.81724200E-1	4.64692548E+0
9.03881980E+2	8.81576400E-1	4.64694981E+0
9.07721816E+2	8.81728100E-1	4.64695531E+0
9.11398606E+2	8.81572500E-1	4.64694386E+0
9.13829371E+2	8.81716300E-1	4.64693836E+0
9.16256714E+2	8.81588100E-1	4.64695938E+0
9.19699342E+2	8.81743600E-1	4.64695786E+0
9.22930485E+2	8.81731900E-1	4.64696725E+0
9.25838821E+2	8.81557100E-1	4.64695974E+0
9.28590592E+2	8.81560900E-1	4.64695038E+0
9.31575656E+2	8.81677500E-1	4.64689142E+0
9.34684368E+2	8.81716300E-1	4.64696355E+0
9.37899860E+2	8.81568700E-1	4.64692595E+0
9.40329273E+2	8.81533700E-1	4.64695461E+0
9.43260077E+2	8.81627000E-1	4.64697294E+0
9.46129867E+2	8.81693100E-1	4.64700894E+0
9.49259065E+2	8.81541500E-1	4.64698149E+0
9.52266687E+2	8.81728100E-1	4.64696467E+0
9.55368397E+2	8.81658100E-1	4.64698162E+0
9.58374083E+2	8.81560900E-1	4.64699025E+0
9.60583172E+2	8.81708600E-1	4.64698694E+0
9.63773158E+2	8.81522100E-1	4.64698453E+0
9.66887542E+2	8.81747500E-1	4.64696651E+0
9.69785024E+2	8.81553100E-1	4.64697424E+0
9.72865374E+2	8.81518200E-1	4.64697593E+0
9.75797074E+2	8.81747500E-1	4.64697615E+0
9.78735532E+2	8.81529800E-1	4.64701389E+0
9.81291069E+2	8.81529800E-1	4.64699484E+0
9.84277617E+2	8.81557100E-1	4.64701242E+0
9.86894618E+2	8.81564800E-1	4.64700392E+0
9.89230213E+2	8.81557100E-1	4.64693282E+0
9.92106291E+2	8.81712500E-1	4.64692441E+0
9.94655390E+2	8.81607500E-1	4.64695522E+0
9.97059633E+2	8.81564800E-1	4.64695196E+0
9.99506653E+2	8.81704700E-1	4.64690201E+0
1.00206359E+3	8.81557100E-1	4.64693288E+0
1.00451188E+3	8.81557100E-1	4.64689903E+0
1.00698120E+3	8.81553100E-1	4.64696042E+0
1.00943971E+3	8.81599800E-1	4.64694415E+0
1.01191460E+3	8.81580400E-1	4.64694026E+0
1.01437287E+3	8.81658100E-1	4.64689603E+0
1.01681616E+3	8.81584300E-1	4.64687282E+0
1.01925936E+3	8.81537600E-1	4.64685874E+0
1.02167950E+3	8.81560900E-1	4.64682381E+0
1.02386455E+3	8.81689200E-1	4.64681531E+0
1.02642446E+3	8.81514300E-1	4.64686276E+0
1.02862270E+3	8.81576400E-1	4.64685149E+0
1.03094404E+3	8.81584300E-1	4.64684760E+0
1.03321604E+3	8.81568700E-1	4.64684304E+0
1.03530242E+3	8.81603600E-1	4.64688758E+0
1.03736373E+3	8.81731900E-1	4.64690872E+0
1.03964073E+3	8.81557100E-1	4.64686380E+0
1.04182446E+3	8.81693100E-1	4.64688934E+0
1.04395498E+3	8.81572500E-1	4.64691657E+0
1.04602423E+3	8.81638600E-1	4.64691290E+0
1.04790018E+3	8.81728100E-1	4.64690172E+0
1.05002561E+3	8.81557100E-1	4.64693106E+0
1.05196917E+3	8.81553100E-1	4.64696589E+0
1.05393181E+3	8.81584300E-1	4.64689895E+0
1.05582913E+3	8.81529800E-1	4.64695753E+0
1.05755777E+3	8.81518200E-1	4.64692256E+0
1.05936246E+3	8.81751300E-1	4.64699949E+0
1.06125356E+3	8.81580400E-1	4.64695625E+0
1.06289164E+3	8.81588100E-1	4.64699972E+0
1.06461483E+3	8.81735800E-1	4.64696886E+0
1.06628173E+3	8.81623100E-1	4.64698031E+0
1.06779567E+3	8.81704700E-1	4.64700888E+0
1.06948343E+3	8.81704700E-1	4.64698496E+0
1.07094374E+3	8.81541500E-1	4.64700562E+0
1.07244021E+3	8.81568700E-1	4.64697740E+0
1.07390309E+3	8.81545400E-1	4.64698210E+0
1.07523530E+3	8.81665900E-1	4.64700686E+0
1.07659052E+3	8.81576400E-1	4.64697546E+0
1.07798982E+3	8.81724200E-1	4.64695963E+0
1.07918879E+3	8.81557100E-1	4.64699916E+0
1.08032949E+3	8.81588100E-1	4.64698307E+0
1.08152256E+3	8.81599800E-1	4.64697685E+0
1.08263107E+3	8.81731900E-1	4.64694497E+0
1.08368072E+3	8.81731900E-1	4.64697989E+0
1.08476289E+3	8.81607500E-1	4.64699943E+0
1.08570812E+3	8.81724200E-1	4.64697564E+0
1.08656663E+3	8.81580400E-1	4.64696121E+0
1.08751227E+3	8.81549300E-1	4.64695553E+0
1.08832580E+3	8.81619300E-1	4.64697284E+0
1.08904427E+3	8.81712500E-1	4.64698138E+0
1.08980264E+3	8.81739700E-1	4.64699381E+0
1.09045352E+3	8.81766900E-1	4.64699882E+0
1.09112170E+3	8.81568700E-1	4.64699480E+0
1.09166528E+3	8.81724200E-1	4.64702029E+0
1.09237011E+3	8.81568700E-1	4.64701622E+0
1.09251798E+3	8.81693100E-1	4.64700785E+0
1.09286959E+3	8.81700800E-1	4.64701326E+0
1.09316175E+3	8.81564800E-1	4.64700253E+0
1.09343489E+3	8.81572500E-1	4.64704551E+0
1.09370767E+3	8.81685400E-1	4.64701510E+0
1.09395682E+3	8.81611400E-1	4.64700320E+0
1.09420060E+3	8.81592000E-1	4.64699462E+0
1.09439976E+3	8.81704700E-1	4.64700374E+0
1.09461274E+3	8.81584300E-1	4.64696068E+0
1.09481906E+3	8.81595900E-1	4.64695777E+0
1.09499927E+3	8.81681300E-1	4.64690268E+0
1.09518033E+3	8.81564800E-1	4.64694865E+0
1.09535940E+3	8.81557100E-1	4.64693948E+0
1.09550340E+3	8.81560900E-1	4.64693300E+0
1.09565961E+3	8.81537600E-1	4.64689262E+0
1.09580203E+3	8.81525900E-1	4.64684168E+0
1.09595117E+3	8.81576400E-1	4.64687895E+0
1.09608790E+3	8.81704700E-1	4.64691825E+0
1.09621990E+3	8.81697000E-1	4.64691021E+0
1.09633612E+3	8.81751300E-1	4.64688570E+0
1.09642509E+3	8.81716300E-1	4.64688762E+0
1.09651375E+3	8.81599800E-1	4.64690828E+0
1.09662709E+3	8.81498700E-1	4.64690801E+0
1.09676933E+3	8.81553100E-1	4.64695716E+0
1.09687384E+3	8.81588100E-1	4.64691477E+0
1.09698014E+3	8.81623100E-1	4.64690784E+0
1.09706012E+3	8.81603600E-1	4.64692894E+0
1.09716036E+3	8.81720300E-1	4.64693002E+0
1.09724501E+3	8.81700800E-1	4.64687112E+0
1.09734002E+3	8.81557100E-1	4.64688682E+0
1.09741868E+3	8.81623100E-1	4.64691038E+0
1.09749834E+3	8.81522100E-1	4.64692188E+0
