# Begin of measurement: 19.07.2019 13:00:12
# R-Sample[Ohm]	I-Coil[A]	U-Magnetometer[V]
# Kei2000	HP E3631A +6V : I	Kei2000
1.10124443E+3	-1.78641200E-2	-1.83650235E-1
1.10126057E+3	-1.78330300E-2	-1.83662979E-1
1.10129071E+3	-1.77514000E-2	-1.83648759E-1
1.10131674E+3	-1.76270200E-2	-1.83622062E-1
1.10133489E+3	-1.76192500E-2	-1.83680732E-1
1.10135596E+3	-1.78330300E-2	-1.83640844E-1
1.10137465E+3	-1.77708300E-2	-1.83638295E-1
1.10139077E+3	-1.78524600E-2	-1.83664723E-1
1.10142071E+3	-1.77747200E-2	-1.83634896E-1
1.10143591E+3	-1.78213600E-2	-1.83651218E-1
1.10143541E+3	-1.78252500E-2	-1.83646568E-1
1.10147301E+3	-1.78330300E-2	-1.83631721E-1
1.10154857E+3	-1.77786100E-2	-1.83639771E-1
1.10160022E+3	-1.77825000E-2	-1.83682575E-1
1.10163575E+3	-1.77980400E-2	-1.83620956E-1
1.10167375E+3	-1.78097000E-2	-1.83614114E-1
1.10171321E+3	-1.78097000E-2	-1.83583616E-1
1.10172936E+3	-1.78097000E-2	-1.83610984E-1
1.10176119E+3	-1.77203100E-2	-1.83604097E-1
1.10177885E+3	-1.76931000E-2	-1.83615948E-1
1.10179996E+3	-1.77786100E-2	-1.83608793E-1
1.10182504E+3	-1.78019300E-2	-1.83618362E-1
1.10183977E+3	-1.78174800E-2	-1.83640230E-1
1.10184526E+3	-1.77475100E-2	-1.83604634E-1
1.10186320E+3	-1.78174800E-2	-1.83625338E-1
1.10187523E+3	-1.78135900E-2	-1.83615590E-1
1.10189275E+3	-1.77125300E-2	-1.83668491E-1
1.10189460E+3	-1.77047600E-2	-1.83684635E-1
1.10190297E+3	-1.76736600E-2	-1.83593633E-1
1.10191567E+3	-1.76853200E-2	-1.83597837E-1
1.10191328E+3	-1.78524600E-2	-1.83608122E-1
1.10192126E+3	-1.78524600E-2	-1.83610403E-1
1.10192695E+3	-1.76658900E-2	-1.83545651E-1
1.10194974E+3	-1.78446900E-2	-1.83564030E-1
1.10194060E+3	-1.77397400E-2	-1.83506701E-1
1.10195154E+3	-1.78369100E-2	-1.83561168E-1
1.10195956E+3	-1.77708300E-2	-1.83591800E-1
1.10196982E+3	-1.77825000E-2	-1.83601414E-1
1.10197261E+3	-1.78213600E-2	-1.83598865E-1
1.10198599E+3	-1.76503400E-2	-1.83622790E-1
1.10199261E+3	-1.78213600E-2	-1.83579011E-1
1.10199959E+3	-1.77825000E-2	-1.83599268E-1
1.10200125E+3	-1.77941600E-2	-1.83642018E-1
1.10199995E+3	-1.78291400E-2	-1.83655389E-1
1.10198801E+3	-1.76309100E-2	-1.83613041E-1
1.10200458E+3	-1.77397400E-2	-1.83593902E-1
1.10199945E+3	-1.78369100E-2	-1.83654360E-1
1.10201213E+3	-1.76853200E-2	-1.83683651E-1
1.10201154E+3	-1.77980400E-2	-1.83633343E-1
1.10202118E+3	-1.77125300E-2	-1.83611789E-1
1.10202946E+3	-1.78019300E-2	-1.83625741E-1
1.10203568E+3	-1.78058200E-2	-1.83576640E-1
1.10203523E+3	-1.77980400E-2	-1.83624534E-1
1.10203442E+3	-1.76892100E-2	-1.83617781E-1
1.10204735E+3	-1.78369100E-2	-1.83648950E-1
1.10205588E+3	-1.78291400E-2	-1.83647474E-1
1.10204034E+3	-1.78291400E-2	-1.83640900E-1
1.10205385E+3	-1.76658900E-2	-1.83621940E-1
1.10206389E+3	-1.76581200E-2	-1.83655979E-1
1.10205898E+3	-1.78097000E-2	-1.83639213E-1
1.10206277E+3	-1.77980400E-2	-1.83671857E-1
1.10207839E+3	-1.76464500E-2	-1.83669845E-1
1.10207357E+3	-1.77125300E-2	-1.83679951E-1
1.10208524E+3	-1.78213600E-2	-1.83643014E-1
1.10207308E+3	-1.76581200E-2	-1.83674138E-1
1.10209960E+3	-1.76620000E-2	-1.83658173E-1
1.10210091E+3	-1.76931000E-2	-1.83675703E-1
1.10210280E+3	-1.78019300E-2	-1.83646547E-1
1.10210199E+3	-1.76581200E-2	-1.83650661E-1
1.10210882E+3	-1.77980400E-2	-1.83658934E-1
1.10210746E+3	-1.78019300E-2	-1.83666849E-1
1.10210741E+3	-1.78097000E-2	-1.83632020E-1
1.10211606E+3	-1.78485700E-2	-1.83613109E-1
1.10209647E+3	-1.76775500E-2	-1.83639761E-1
1.10209435E+3	-1.76853200E-2	-1.83598084E-1
1.10211349E+3	-1.78330300E-2	-1.83627061E-1
1.10212434E+3	-1.77980400E-2	-1.83604389E-1
1.10212704E+3	-1.76620000E-2	-1.83596072E-1
1.10212479E+3	-1.76814400E-2	-1.83574249E-1
1.10212789E+3	-1.78019300E-2	-1.83567452E-1
1.10213740E+3	-1.77941600E-2	-1.83626882E-1
1.10213537E+3	-1.78369100E-2	-1.83610247E-1
1.10213177E+3	-1.77552900E-2	-1.83605328E-1
1.10214262E+3	-1.76503400E-2	-1.83613869E-1
1.10213741E+3	-1.78135900E-2	-1.83630426E-1
1.10212459E+3	-1.76581200E-2	-1.83624748E-1
1.10215327E+3	-1.77941600E-2	-1.83611019E-1
1.10214634E+3	-1.77747200E-2	-1.83615894E-1
1.10215404E+3	-1.78213600E-2	-1.83614507E-1
1.10216183E+3	-1.76503400E-2	-1.83582936E-1
1.10216322E+3	-1.78485700E-2	-1.83637718E-1
1.10216480E+3	-1.76425700E-2	-1.83638175E-1
1.10216064E+3	-1.76542300E-2	-1.83626593E-1
1.10216002E+3	-1.77747200E-2	-1.83633077E-1
1.10216336E+3	-1.78174800E-2	-1.83648594E-1
1.10216867E+3	-1.76658900E-2	-1.83623686E-1
1.10215728E+3	-1.76464500E-2	-1.83604189E-1
1.10215714E+3	-1.77475100E-2	-1.83593949E-1
1.10216002E+3	-1.76075900E-2	-1.83611970E-1
1.10214901E+3	-1.76658900E-2	-1.83585273E-1
1.10215542E+3	-1.78602300E-2	-1.83612060E-1
1.10216348E+3	-1.78058200E-2	-1.83647610E-1
1.10216371E+3	-1.78097000E-2	-1.83613804E-1
1.10214561E+3	-1.77241900E-2	-1.83619092E-1
1.10216461E+3	-1.77241900E-2	-1.83633727E-1
1.10214953E+3	-1.76581200E-2	-1.83650004E-1
1.10216290E+3	-1.78408000E-2	-1.83620624E-1
1.10216193E+3	-1.76736600E-2	-1.83627779E-1
1.10216997E+3	-1.76581200E-2	-1.83627287E-1
1.10217222E+3	-1.78097000E-2	-1.83591021E-1
1.10216839E+3	-1.77397400E-2	-1.83554609E-1
1.10216150E+3	-1.76853200E-2	-1.83586716E-1
1.10216582E+3	-1.78602300E-2	-1.83616812E-1
1.10216943E+3	-1.76581200E-2	-1.83605900E-1
1.10216406E+3	-1.77708300E-2	-1.83600355E-1
1.10215447E+3	-1.77980400E-2	-1.83629020E-1
1.10217699E+3	-1.76581200E-2	-1.83649098E-1
1.10217906E+3	-1.78291400E-2	-1.83670071E-1
1.10217113E+3	-1.77863800E-2	-1.83627320E-1
1.10216852E+3	-1.76503400E-2	-1.83621909E-1
1.10218068E+3	-1.76658900E-2	-1.83598164E-1
1.10217892E+3	-1.78757800E-2	-1.83634922E-1
1.10218514E+3	-1.76542300E-2	-1.83616321E-1
1.10218987E+3	-1.76542300E-2	-1.83589858E-1
1.10219172E+3	-1.78019300E-2	-1.83599875E-1
1.10219590E+3	-1.78058200E-2	-1.83602156E-1
1.10219122E+3	-1.76697800E-2	-1.83591245E-1
1.10219523E+3	-1.77241900E-2	-1.83623039E-1
1.10219334E+3	-1.77552900E-2	-1.83628987E-1
1.10219406E+3	-1.77980400E-2	-1.83612754E-1
1.10219383E+3	-1.76892100E-2	-1.83625677E-1
1.10220000E+3	-1.78252500E-2	-1.83628048E-1
1.10219842E+3	-1.77086400E-2	-1.83641239E-1
1.10220500E+3	-1.77863800E-2	-1.83643520E-1
1.10221076E+3	-1.78291400E-2	-1.83644951E-1
1.10219658E+3	-1.78796700E-2	-1.83670399E-1
1.10217677E+3	-1.76853200E-2	-1.83668216E-1
1.10216937E+3	-1.78408000E-2	-1.83703946E-1
1.10216237E+3	-1.78524600E-2	-1.83673046E-1
1.10216692E+3	-1.78641200E-2	-1.83654488E-1
1.10219669E+3	-1.77902700E-2	-1.83646975E-1
1.10220263E+3	-1.78213600E-2	-1.83641296E-1
1.10220722E+3	-1.78485700E-2	-1.83672286E-1
1.10221065E+3	-1.77047600E-2	-1.83672599E-1
1.10220889E+3	-1.77514000E-2	-1.83662403E-1
1.10220984E+3	-1.76969800E-2	-1.83650731E-1
1.10220871E+3	-1.78330300E-2	-1.83654756E-1
1.10221636E+3	-1.78408000E-2	-1.83641296E-1
1.10221997E+3	-1.78291400E-2	-1.83635438E-1
1.10221587E+3	-1.76775500E-2	-1.83678322E-1
1.10220925E+3	-1.76581200E-2	-1.83678322E-1
1.10222082E+3	-1.78058200E-2	-1.83684896E-1
1.10221711E+3	-1.77902700E-2	-1.83706048E-1
1.10223003E+3	-1.76114700E-2	-1.83684270E-1
1.10221976E+3	-1.78446900E-2	-1.83676981E-1
1.10221540E+3	-1.77825000E-2	-1.83698994E-1
1.10222427E+3	-1.78408000E-2	-1.83643409E-1
1.10222319E+3	-1.78097000E-2	-1.83672700E-1
1.10222778E+3	-1.77941600E-2	-1.83647568E-1
1.10222661E+3	-1.77786100E-2	-1.83653292E-1
1.10221485E+3	-1.76386800E-2	-1.83631112E-1
1.10221022E+3	-1.76542300E-2	-1.83690274E-1
1.10219203E+3	-1.78330300E-2	-1.83728061E-1
1.10219486E+3	-1.78174800E-2	-1.83652577E-1
1.10222030E+3	-1.77008700E-2	-1.83635986E-1
1.10222908E+3	-1.78563500E-2	-1.83683700E-1
1.10223093E+3	-1.77319700E-2	-1.83664472E-1
1.10223307E+3	-1.78097000E-2	-1.83658250E-1
1.10222904E+3	-1.76931000E-2	-1.83651357E-1
1.10224341E+3	-1.77902700E-2	-1.83642995E-1
1.10222634E+3	-1.78291400E-2	-1.83623766E-1
1.10223517E+3	-1.78019300E-2	-1.83620055E-1
1.10222634E+3	-1.77241900E-2	-1.83590630E-1
1.10220662E+3	-1.77552900E-2	-1.83631279E-1
1.10220383E+3	-1.78524600E-2	-1.83618311E-1
1.10219453E+3	-1.78680100E-2	-1.83621665E-1
1.10220534E+3	-1.76775500E-2	-1.83621530E-1
1.10222808E+3	-1.78097000E-2	-1.83640715E-1
1.10223497E+3	-1.78019300E-2	-1.83647914E-1
1.10222920E+3	-1.78485700E-2	-1.83652788E-1
1.10224082E+3	-1.76581200E-2	-1.83669021E-1
1.10223542E+3	-1.78330300E-2	-1.83659675E-1
1.10223788E+3	-1.78446900E-2	-1.83626315E-1
1.10224407E+3	-1.78097000E-2	-1.83622648E-1
1.10224407E+3	-1.78213600E-2	-1.83618624E-1
1.10225654E+3	-1.77319700E-2	-1.83651089E-1
1.10224803E+3	-1.78174800E-2	-1.83642503E-1
1.10225974E+3	-1.76853200E-2	-1.83626661E-1
1.10225483E+3	-1.76892100E-2	-1.83629300E-1
1.10225105E+3	-1.78524600E-2	-1.83654476E-1
1.10224763E+3	-1.77941600E-2	-1.83661497E-1
1.10226092E+3	-1.77591700E-2	-1.83645264E-1
1.10225700E+3	-1.77552900E-2	-1.83644146E-1
1.10224957E+3	-1.76814400E-2	-1.83646695E-1
